%OpenBCI Raw EEG Data
%
%Sample Rate = 250.0 Hz
%First Column = SampleIndex
%Other Columns = EEG data in microvolts with optional columns at end being unscaled Aux data
0, -164266.14, -69937.31, 47480.33, -180216.67, -103363.38, -167777.83, -26247.07, -187500.02, 0
1, -164269.09, -69687.02, 47469.18, -180216.05, -103362.55, -167775.89, -26257.46, -187500.02, 0
2, -164268.33, -69761.27, 47462.43, -180216.34, -103362.60, -167775.14, -26265.45, -187500.02, 0
3, -164266.66, -70017.87, 47461.63, -180220.36, -103366.11, -167778.36, -26269.42, -187500.02, 0
4, -164265.02, -69969.97, 47455.90, -180224.64, -103370.11, -167781.73, -26274.05, -187500.02, 0
5, -164263.55, -69715.42, 47447.30, -180224.55, -103369.93, -167780.30, -26281.61, -187500.02, 0
6, -164264.34, -69735.88, 47443.50, -180226.06, -103371.14, -167780.64, -26288.94, -187500.02, 0
7, -164262.63, -69987.24, 47442.67, -180228.09, -103372.79, -167781.94, -26294.86, -187500.02, 0
8, -164258.53, -70008.59, 47439.52, -180230.42, -103374.71, -167783.45, -26299.73, -187500.02, 0
9, -164256.86, -69751.68, 47431.09, -180232.81, -103377.02, -167784.61, -26307.73, -187500.02, 0
10, -164258.42, -69691.48, 47427.07, -180233.89, -103377.98, -167784.45, -26315.80, -187500.02, 0
11, -164256.73, -69947.93, 47427.34, -180236.86, -103380.48, -167786.77, -26321.66, -187500.02, 0
12, -164255.72, -70053.34, 47425.80, -180239.25, -103382.49, -167788.34, -26327.27, -187500.02, 0
13, -164254.47, -69814.13, 47419.29, -180239.41, -103382.38, -167787.25, -26333.64, -187500.02, 0
14, -164255.66, -69690.48, 47412.83, -180237.28, -103380.03, -167783.83, -26340.77, -187500.02, 0
15, -164253.13, -69919.77, 47409.99, -180240.61, -103383.01, -167786.31, -26346.47, -187500.02, 0
16, -164250.30, -70067.38, 47407.54, -180245.72, -103387.66, -167790.83, -26350.40, -187500.02, 0
17, -164250.61, -69858.45, 47400.88, -180243.75, -103385.42, -167787.80, -26357.51, -187500.02, 0
18, -164252.08, -69677.45, 47391.98, -180243.23, -103384.73, -167785.80, -26368.13, -187500.02, 0
19, -164252.03, -69849.76, 47389.36, -180243.55, -103384.75, -167785.22, -26375.68, -187500.02, 0
20, -164249.75, -70053.36, 47390.84, -180248.69, -103389.55, -167789.73, -26381.29, -187500.02, 0
21, -164247.72, -69891.47, 47385.94, -180252.75, -103393.29, -167792.80, -26387.35, -187500.02, 0
22, -164245.53, -69661.49, 47374.48, -180251.08, -103391.48, -167789.84, -26395.91, -187500.02, 0
23, -164244.88, -69780.38, 47369.52, -180252.66, -103392.77, -167790.27, -26402.08, -187500.02, 0
24, -164242.67, -70018.36, 47371.10, -180255.84, -103395.55, -167792.73, -26406.71, -187500.02, 0
25, -164241.44, -69930.76, 47366.90, -180258.19, -103397.58, -167794.16, -26411.98, -187500.02, 0
26, -164240.70, -69688.71, 47358.32, -180258.19, -103397.40, -167792.95, -26420.81, -187500.02, 0
27, -164241.08, -69739.81, 47353.76, -180255.91, -103394.85, -167789.53, -26429.93, -187500.02, 0
28, -164238.73, -69999.88, 47355.16, -180260.31, -103398.85, -167793.20, -26437.78, -187500.02, 0
29, -164236.67, -69978.48, 47353.64, -180265.34, -103403.68, -167797.52, -26445.22, -187500.02, 0
30, -164237.53, -69706.17, 47345.51, -180264.94, -103403.13, -167795.81, -26454.56, -187500.02, 0
31, -164237.22, -69688.53, 47340.75, -180264.16, -103402.05, -167793.80, -26462.79, -187500.02, 0
32, -164233.55, -69949.00, 47342.58, -180265.98, -103403.34, -167794.86, -26468.29, -187500.02, 0
33, -164230.27, -70010.35, 47339.96, -180270.20, -103407.13, -167798.23, -26472.38, -187500.02, 0
34, -164232.30, -69765.02, 47332.23, -180271.23, -103407.99, -167797.94, -26478.52, -187500.02, 0
35, -164233.70, -69677.47, 47326.00, -180271.19, -103407.75, -167796.69, -26487.35, -187500.02, 0
36, -164230.28, -69920.16, 47325.91, -180272.78, -103409.05, -167797.42, -26491.80, -187500.02, 0
37, -164226.78, -70048.64, 47325.95, -180277.08, -103412.96, -167801.05, -26496.34, -187500.02, 0
38, -164227.45, -69823.02, 47319.29, -180278.09, -103413.74, -167800.91, -26504.52, -187500.02, 0
39, -164228.25, -69660.98, 47313.05, -180276.45, -103411.91, -167797.94, -26511.54, -187500.02, 0
40, -164225.80, -69864.98, 47313.19, -180276.30, -103411.35, -167796.86, -26516.39, -187500.02, 0
41, -164224.09, -70053.12, 47312.02, -180281.39, -103415.95, -167801.27, -26520.48, -187500.02, 0
42, -164224.08, -69869.59, 47303.75, -180283.58, -103417.92, -167802.45, -26525.53, -187500.02, 0
43, -164226.03, -69669.27, 47294.41, -180283.95, -103418.08, -167801.45, -26533.49, -187500.02, 0
44, -164226.02, -69833.58, 47292.36, -180285.05, -103418.99, -167801.61, -26540.44, -187500.02, 0
45, -164223.64, -70046.03, 47292.38, -180287.95, -103421.59, -167803.81, -26546.05, -187500.02, 0
46, -164223.94, -69906.84, 47287.82, -180288.92, -103422.16, -167803.72, -26552.71, -187500.02, 0
47, -164226.98, -69677.80, 47280.29, -180291.31, -103424.38, -167804.83, -26561.45, -187500.02, 0
48, -164225.03, -69771.80, 47276.11, -180291.88, -103424.80, -167804.42, -26569.29, -187500.02, 0
49, -164219.92, -70033.87, 47274.16, -180294.75, -103427.24, -167806.75, -26574.03, -187500.02, 0
50, -164218.86, -69978.64, 47268.64, -180298.11, -103430.15, -167809.16, -26579.33, -187500.02, 0
51, -164218.50, -69706.48, 47258.61, -180296.86, -103428.73, -167806.63, -26586.06, -187500.02, 0
52, -164217.80, -69718.04, 47250.76, -180298.55, -103430.21, -167807.08, -26592.54, -187500.02, 0
53, -164214.73, -69990.04, 47247.68, -180303.22, -103434.57, -167810.98, -26596.56, -187500.02, 0
54, -164212.14, -70008.92, 47243.18, -180306.80, -103437.74, -167813.73, -26602.24, -187500.02, 0
55, -164214.63, -69738.09, 47234.33, -180304.28, -103434.95, -167809.94, -26611.85, -187500.02, 0
56, -164216.11, -69684.04, 47225.99, -180303.41, -103434.02, -167807.95, -26621.35, -187500.02, 0
57, -164213.03, -69954.07, 47222.62, -180306.02, -103436.18, -167809.66, -26628.37, -187500.02, 0
58, -164209.34, -70038.45, 47219.15, -180309.53, -103439.27, -167812.42, -26634.72, -187500.02, 0
59, -164211.44, -69769.78, 47209.68, -180309.84, -103439.31, -167811.55, -26642.76, -187500.02, 0
60, -164214.95, -69647.79, 47203.51, -180309.44, -103438.66, -167809.72, -26652.15, -187500.02, 0
61, -164213.09, -69890.04, 47203.80, -180312.28, -103441.32, -167811.80, -26659.01, -187500.02, 0
62, -164208.16, -70050.79, 47205.45, -180316.13, -103444.63, -167814.91, -26664.58, -187500.02, 0
63, -164206.84, -69833.75, 47201.61, -180318.98, -103447.20, -167816.53, -26673.25, -187500.02, 0
64, -164209.70, -69639.27, 47192.42, -180318.67, -103446.93, -167814.92, -26682.86, -187500.02, 0
65, -164211.27, -69841.94, 47188.87, -180319.14, -103447.06, -167814.41, -26690.82, -187500.02, 0
66, -164205.30, -70057.90, 47188.51, -180322.80, -103450.30, -167817.39, -26699.16, -187500.02, 0
67, -164199.91, -69886.05, 47183.59, -180324.64, -103451.89, -167818.20, -26707.41, -187500.02, 0
68, -164201.45, -69643.88, 47174.90, -180325.53, -103452.61, -167817.83, -26717.40, -187500.02, 0
69, -164204.31, -69766.88, 47171.95, -180324.95, -103451.78, -167816.22, -26724.30, -187500.02, 0
70, -164199.66, -70017.48, 47169.62, -180328.80, -103455.13, -167819.34, -26729.80, -187500.02, 0
71, -164196.11, -69928.41, 47162.49, -180331.25, -103457.28, -167820.88, -26738.18, -187500.02, 0
72, -164199.28, -69661.87, 47154.22, -180331.23, -103457.19, -167819.47, -26747.79, -187500.02, 0
73, -164198.45, -69726.47, 47150.85, -180331.75, -103457.44, -167818.97, -26754.81, -187500.02, 0
74, -164195.16, -70009.62, 47152.61, -180334.66, -103459.72, -167821.16, -26759.33, -187500.02, 0
75, -164194.39, -69984.56, 47150.89, -180338.81, -103463.45, -167824.47, -26766.24, -187500.02, 0
76, -164196.73, -69705.79, 47142.96, -180339.91, -103464.55, -167824.22, -26776.07, -187500.02, 0
77, -164197.23, -69684.80, 47137.46, -180341.72, -103466.11, -167824.69, -26786.84, -187500.02, 0
78, -164194.02, -69958.39, 47134.30, -180343.84, -103467.92, -167826.14, -26793.30, -187500.02, 0
79, -164192.69, -70022.73, 47132.07, -180345.56, -103469.22, -167827.00, -26799.99, -187500.02, 0
80, -164194.03, -69748.82, 47122.68, -180348.08, -103471.50, -167828.27, -26809.69, -187500.02, 0
81, -164195.91, -69667.08, 47113.96, -180347.66, -103470.98, -167826.66, -26820.95, -187500.02, 0
82, -164191.94, -69920.55, 47115.60, -180350.28, -103473.28, -167828.42, -26829.49, -187500.02, 0
83, -164188.11, -70046.25, 47113.96, -180355.45, -103478.02, -167832.84, -26834.10, -187500.02, 0
84, -164187.69, -69808.38, 47104.96, -180355.11, -103477.20, -167831.22, -26841.05, -187500.02, 0
85, -164186.14, -69650.09, 47097.14, -180353.58, -103475.70, -167828.45, -26850.19, -187500.02, 0
86, -164185.16, -69863.59, 47094.66, -180356.98, -103478.72, -167830.95, -26856.67, -187500.02, 0
87, -164181.77, -70037.06, 47093.85, -180361.36, -103482.54, -167834.58, -26863.40, -187500.02, 0
88, -164183.25, -69843.73, 47087.23, -180363.59, -103484.46, -167835.75, -26872.67, -187500.02, 0
89, -164184.95, -69636.66, 47078.38, -180362.05, -103482.85, -167833.05, -26881.82, -187500.02, 0
90, -164182.98, -69800.72, 47075.21, -180361.73, -103482.23, -167831.73, -26889.44, -187500.02, 0
91, -164181.83, -70036.41, 47074.25, -180365.41, -103485.53, -167834.69, -26894.51, -187500.02, 0
92, -164182.08, -69908.25, 47067.50, -180367.81, -103487.61, -167836.03, -26900.50, -187500.02, 0
93, -164182.88, -69655.77, 47057.62, -180368.42, -103487.99, -167835.23, -26910.85, -187500.02, 0
94, -164182.63, -69745.09, 47053.73, -180367.94, -103487.34, -167833.80, -26919.37, -187500.02, 0
95, -164179.08, -70004.19, 47056.30, -180369.45, -103488.44, -167834.61, -26924.73, -187500.02, 0
96, -164176.53, -69954.86, 47053.48, -180371.89, -103490.41, -167836.05, -26930.77, -187500.02, 0
97, -164177.48, -69693.09, 47044.96, -180372.30, -103490.72, -167835.16, -26939.30, -187500.02, 0
98, -164179.56, -69716.90, 47038.64, -180373.23, -103491.41, -167835.00, -26948.31, -187500.02, 0
99, -164176.38, -69980.16, 47036.96, -180374.89, -103492.73, -167835.94, -26953.79, -187500.02, 0
100, -164174.94, -69986.26, 47033.54, -180379.31, -103496.80, -167839.53, -26961.30, -187500.02, 0
101, -164177.05, -69718.04, 47024.78, -180378.95, -103496.20, -167837.92, -26973.21, -187500.02, 0
102, -164178.72, -69675.41, 47017.83, -180378.64, -103495.75, -167836.31, -26985.44, -187500.02, 0
103, -164174.23, -69937.53, 47017.74, -180381.80, -103498.54, -167838.75, -26994.04, -187500.02, 0
104, -164169.59, -70028.21, 47015.95, -180384.63, -103500.82, -167840.77, -27001.44, -187500.02, 0
105, -164170.45, -69772.51, 47010.01, -180385.81, -103501.88, -167840.78, -27010.92, -187500.02, 0
106, -164173.77, -69651.68, 47002.97, -180385.20, -103501.02, -167838.81, -27021.27, -187500.02, 0
107, -164170.97, -69897.48, 47001.78, -180388.67, -103504.02, -167841.36, -27030.32, -187500.02, 0
108, -164165.22, -70048.51, 47002.12, -180393.41, -103508.47, -167845.41, -27037.14, -187500.02, 0
109, -164165.48, -69822.06, 46995.01, -180394.27, -103509.07, -167845.09, -27046.86, -187500.02, 0
110, -164167.92, -69646.34, 46986.25, -180393.70, -103508.35, -167843.42, -27059.96, -187500.02, 0
111, -164166.22, -69838.96, 46985.78, -180397.03, -103511.30, -167845.61, -27068.32, -187500.02, 0
112, -164165.44, -70045.11, 46988.59, -180399.50, -103513.25, -167847.36, -27075.03, -187500.02, 0
113, -164167.86, -69880.00, 46983.28, -180400.77, -103514.21, -167847.48, -27081.78, -187500.02, 0
114, -164170.03, -69646.71, 46975.54, -180399.94, -103513.30, -167845.41, -27089.67, -187500.02, 0
115, -164168.64, -69785.88, 46976.17, -180400.14, -103513.25, -167844.58, -27097.44, -187500.02, 0
116, -164163.64, -70015.70, 46978.76, -180406.98, -103519.55, -167850.63, -27104.60, -187500.02, 0
117, -164161.16, -69914.82, 46974.83, -180408.23, -103520.47, -167851.02, -27112.80, -187500.02, 0
118, -164162.77, -69668.98, 46966.24, -180407.30, -103519.35, -167848.86, -27121.03, -187500.02, 0
119, -164161.86, -69737.41, 46962.94, -180408.44, -103520.31, -167848.86, -27130.01, -187500.02, 0
120, -164159.08, -69988.05, 46963.88, -180410.28, -103521.84, -167850.00, -27137.01, -187500.02, 0
121, -164156.66, -69959.73, 46961.50, -180412.81, -103523.98, -167851.69, -27143.94, -187500.02, 0
122, -164156.17, -69695.06, 46952.59, -180413.13, -103524.02, -167850.70, -27154.17, -187500.02, 0
123, -164158.33, -69679.26, 46946.69, -180413.13, -103523.91, -167849.66, -27163.98, -187500.02, 0
124, -164155.83, -69947.59, 46947.40, -180414.98, -103525.50, -167850.73, -27170.94, -187500.02, 0
125, -164152.61, -70005.66, 46944.79, -180418.56, -103528.63, -167853.48, -27177.69, -187500.02, 0
126, -164155.09, -69751.81, 46937.95, -180418.95, -103528.74, -167852.63, -27188.24, -187500.02, 0
127, -164156.84, -69653.55, 46933.32, -180418.47, -103528.00, -167850.80, -27200.22, -187500.02, 0
128, -164153.31, -69885.50, 46934.23, -180421.48, -103530.64, -167853.03, -27209.43, -187500.02, 0
129, -164149.63, -69995.52, 46934.44, -180424.69, -103533.43, -167855.58, -27216.53, -187500.02, 0
130, -164151.58, -69796.00, 46927.91, -180423.91, -103532.41, -167853.53, -27224.71, -187500.02, 0
131, -164152.92, -69656.73, 46919.68, -180425.16, -103533.50, -167853.45, -27235.58, -187500.02, 0
132, -164152.97, -69859.52, 46918.97, -180427.45, -103535.40, -167854.78, -27242.64, -187500.02, 0
133, -164150.02, -70024.15, 46918.46, -180432.86, -103540.36, -167859.50, -27248.03, -187500.02, 0
134, -164145.75, -69851.14, 46909.56, -180433.27, -103540.54, -167858.83, -27256.68, -187500.02, 0
135, -164148.48, -69653.48, 46899.73, -180432.97, -103540.14, -167857.33, -27267.72, -187500.02, 0
136, -164150.00, -69806.09, 46899.08, -180436.11, -103543.07, -167859.41, -27275.52, -187500.02, 0
137, -164147.89, -70019.32, 46901.67, -180439.70, -103546.15, -167862.22, -27282.78, -187500.02, 0
138, -164146.83, -69887.55, 46896.89, -180441.31, -103547.31, -167862.75, -27291.52, -187500.02, 0
139, -164148.88, -69650.07, 46888.86, -180440.83, -103546.71, -167861.02, -27300.44, -187500.02, 0
140, -164150.09, -69763.34, 46886.89, -180441.80, -103547.52, -167861.08, -27307.59, -187500.02, 0
141, -164144.36, -70006.24, 46888.97, -180443.97, -103549.26, -167862.52, -27313.81, -187500.02, 0
142, -164140.81, -69939.19, 46884.86, -180447.22, -103552.09, -167864.77, -27322.37, -187500.02, 0
143, -164143.38, -69681.31, 46876.86, -180448.73, -103553.48, -167864.95, -27334.57, -187500.02, 0
144, -164143.45, -69707.53, 46872.25, -180447.97, -103552.55, -167863.03, -27346.46, -187500.02, 0
145, -164139.58, -69957.94, 46872.59, -180451.42, -103555.54, -167865.73, -27353.68, -187500.02, 0
146, -164136.81, -69961.74, 46871.02, -180457.56, -103561.30, -167871.00, -27360.90, -187500.02, 0
147, -164139.69, -69708.30, 46864.57, -180456.64, -103560.12, -167868.72, -27371.63, -187500.02, 0
148, -164139.27, -69670.07, 46858.93, -180456.53, -103559.88, -167867.39, -27382.36, -187500.02, 0
149, -164133.59, -69921.64, 46857.70, -180458.39, -103561.30, -167868.44, -27388.89, -187500.02, 0
150, -164130.47, -69993.95, 46856.16, -180461.73, -103564.14, -167871.00, -27394.52, -187500.02, 0
151, -164132.75, -69756.95, 46849.21, -180462.92, -103565.17, -167871.08, -27402.61, -187500.02, 0
152, -164134.58, -69645.82, 46841.19, -180462.13, -103564.26, -167869.00, -27412.54, -187500.02, 0
153, -164133.33, -69851.08, 46839.49, -180465.91, -103567.56, -167871.91, -27420.78, -187500.02, 0
154, -164130.22, -69978.88, 46837.43, -180469.88, -103571.14, -167875.13, -27428.43, -187500.02, 0
155, -164129.50, -69762.43, 46828.87, -180469.75, -103570.70, -167873.83, -27439.13, -187500.02, 0
156, -164131.80, -69601.54, 46819.15, -180469.25, -103569.98, -167871.92, -27452.43, -187500.02, 0
157, -164133.23, -69786.63, 46817.80, -180471.64, -103572.17, -167873.47, -27464.71, -187500.02, 0
158, -164127.53, -69983.73, 46817.40, -180473.67, -103573.69, -167874.83, -27473.13, -187500.02, 0
159, -164126.00, -69837.91, 46811.57, -180474.17, -103573.94, -167874.36, -27482.90, -187500.02, 0
160, -164127.33, -69626.80, 46802.79, -180474.89, -103574.52, -167873.67, -27495.46, -187500.02, 0
161, -164126.13, -69760.87, 46800.13, -180478.23, -103577.63, -167875.94, -27506.14, -187500.02, 0
162, -164123.11, -69987.27, 46801.78, -180480.42, -103579.30, -167877.48, -27512.02, -187500.02, 0
163, -164120.63, -69876.85, 46797.51, -180482.16, -103580.70, -167878.19, -27519.94, -187500.02, 0
164, -164121.95, -69637.77, 46789.35, -180481.97, -103580.35, -167876.61, -27531.85, -187500.02, 0
165, -164124.27, -69716.02, 46785.75, -180483.11, -103581.16, -167876.55, -27540.81, -187500.02, 0
166, -164121.08, -69969.14, 46785.15, -180487.45, -103585.18, -167880.19, -27546.54, -187500.02, 0
167, -164116.22, -69933.22, 46780.01, -180488.97, -103586.30, -167880.95, -27553.33, -187500.02, 0
168, -164116.98, -69678.68, 46772.77, -180488.14, -103585.29, -167878.84, -27562.58, -187500.02, 0
169, -164118.61, -69677.47, 46769.50, -180489.70, -103586.67, -167879.30, -27572.73, -187500.02, 0
170, -164118.42, -69928.75, 46771.40, -180492.09, -103588.62, -167880.91, -27580.53, -187500.02, 0
171, -164114.80, -69969.83, 46769.17, -180497.45, -103593.56, -167885.42, -27587.91, -187500.02, 0
172, -164113.41, -69721.30, 46760.86, -180499.16, -103595.05, -167885.88, -27598.62, -187500.02, 0
173, -164112.97, -69649.71, 46752.76, -180496.19, -103591.93, -167881.64, -27608.85, -187500.02, 0
174, -164110.75, -69889.23, 46752.07, -180499.83, -103595.21, -167884.44, -27616.94, -187500.02, 0
175, -164107.22, -69985.19, 46752.94, -180503.34, -103598.25, -167887.13, -27624.65, -187500.02, 0
176, -164107.33, -69750.70, 46746.28, -180504.08, -103598.79, -167886.67, -27633.30, -187500.02, 0
177, -164110.80, -69607.29, 46739.29, -180504.09, -103598.66, -167885.47, -27644.66, -187500.02, 0
178, -164110.19, -69828.13, 46740.18, -180503.67, -103597.91, -167884.14, -27655.61, -187500.02, 0
179, -164105.05, -69995.18, 46740.85, -180508.64, -103602.39, -167888.38, -27663.68, -187500.02, 0
180, -164103.97, -69803.60, 46734.23, -180509.34, -103602.73, -167887.88, -27673.83, -187500.02, 0
181, -164104.20, -69618.06, 46723.44, -180509.38, -103602.73, -167886.58, -27685.25, -187500.02, 0
182, -164103.95, -69772.55, 46721.05, -180511.47, -103604.60, -167887.83, -27693.41, -187500.02, 0
183, -164101.56, -69979.53, 46721.29, -180515.86, -103608.42, -167891.50, -27697.41, -187500.02, 0
184, -164102.56, -69848.23, 46715.79, -180516.84, -103609.16, -167891.56, -27704.92, -187500.02, 0
185, -164104.84, -69615.60, 46707.05, -180515.09, -103607.17, -167888.39, -27717.39, -187500.02, 0
186, -164102.66, -69721.59, 46703.92, -180517.13, -103608.96, -167889.41, -27726.87, -187500.02, 0
187, -164101.39, -69964.63, 46702.88, -180521.83, -103613.30, -167893.33, -27733.46, -187500.02, 0
188, -164100.38, -69893.05, 46696.82, -180523.34, -103614.57, -167893.98, -27741.42, -187500.02, 0
189, -164099.70, -69640.61, 46685.82, -180522.36, -103613.38, -167891.64, -27752.69, -187500.02, 0
190, -164099.03, -69677.67, 46680.34, -180522.72, -103613.50, -167890.81, -27763.46, -187500.02, 0
191, -164095.64, -69927.38, 46681.26, -180528.64, -103618.93, -167895.97, -27771.75, -187500.02, 0
192, -164092.00, -69928.75, 46679.52, -180532.50, -103622.51, -167899.19, -27780.56, -187500.02, 0
193, -164092.84, -69682.73, 46671.38, -180532.75, -103622.59, -167898.14, -27792.09, -187500.02, 0
194, -164092.06, -69643.43, 46666.39, -180531.70, -103621.23, -167895.84, -27803.20, -187500.02, 0
195, -164089.66, -69887.15, 46665.50, -180532.73, -103621.88, -167896.03, -27811.83, -187500.02, 0
196, -164087.77, -69966.73, 46665.86, -180536.39, -103625.14, -167898.83, -27820.81, -187500.02, 0
197, -164089.38, -69730.66, 46660.88, -180537.14, -103625.63, -167898.34, -27830.27, -187500.02, 0
198, -164090.92, -69616.79, 46653.86, -180536.13, -103624.49, -167896.11, -27841.64, -187500.02, 0
199, -164090.36, -69846.54, 46653.68, -180538.94, -103626.95, -167898.13, -27850.88, -187500.02, 0
200, -164090.88, -69985.12, 46651.84, -180542.66, -103630.24, -167901.02, -27858.23, -187500.02, 0
201, -164092.05, -69773.59, 46641.47, -180542.95, -103630.22, -167900.16, -27869.58, -187500.02, 0
202, -164092.00, -69615.20, 46633.45, -180543.11, -103630.22, -167899.02, -27881.77, -187500.02, 0
203, -164091.23, -69803.84, 46630.27, -180545.97, -103632.79, -167900.98, -27891.13, -187500.02, 0
204, -164088.78, -69978.44, 46627.44, -180549.03, -103635.31, -167903.22, -27899.09, -187500.02, 0
205, -164090.94, -69811.63, 46621.29, -180550.55, -103636.50, -167903.75, -27908.99, -187500.02, 0
206, -164093.19, -69604.11, 46613.46, -180549.42, -103635.24, -167901.30, -27920.28, -187500.02, 0
207, -164090.13, -69752.39, 46611.61, -180551.44, -103636.90, -167902.20, -27930.05, -187500.02, 0
208, -164085.02, -69984.67, 46611.57, -180555.69, -103640.81, -167905.83, -27939.95, -187500.02, 0
209, -164083.91, -69871.80, 46606.70, -180558.75, -103643.43, -167907.89, -27950.90, -187500.02, 0
210, -164084.63, -69628.72, 46599.27, -180559.08, -103643.65, -167906.97, -27963.89, -187500.02, 0
211, -164083.95, -69703.06, 46595.65, -180559.86, -103644.27, -167906.61, -27975.71, -187500.02, 0
212, -164082.63, -69942.65, 46595.65, -180563.02, -103647.05, -167908.91, -27983.40, -187500.02, 0
213, -164079.95, -69891.94, 46591.50, -180565.80, -103649.44, -167910.80, -27989.32, -187500.02, 0
214, -164080.39, -69646.85, 46584.05, -180564.36, -103647.80, -167908.11, -28000.68, -187500.02, 0
215, -164081.09, -69659.03, 46581.44, -180564.14, -103647.41, -167906.70, -28012.72, -187500.02, 0
216, -164077.72, -69901.88, 46582.57, -180566.97, -103649.93, -167908.84, -28019.65, -187500.02, 0
217, -164075.19, -69926.80, 46579.34, -180570.33, -103652.91, -167911.47, -28028.39, -187500.02, 0
218, -164074.11, -69673.13, 46570.21, -180571.38, -103653.77, -167911.28, -28040.49, -187500.02, 0
219, -164077.42, -69604.65, 46564.05, -180573.34, -103655.45, -167912.02, -28051.93, -187500.02, 0
220, -164077.88, -69852.41, 46563.84, -180576.08, -103657.71, -167913.77, -28060.07, -187500.02, 0
221, -164073.95, -69955.70, 46565.19, -180578.33, -103659.50, -167915.27, -28067.06, -187500.02, 0
222, -164074.25, -69724.74, 46559.09, -180578.84, -103659.90, -167914.70, -28079.29, -187500.02, 0
223, -164075.97, -69595.75, 46551.51, -180578.55, -103659.59, -167913.19, -28091.09, -187500.02, 0
224, -164073.02, -69805.70, 46549.32, -180581.70, -103662.34, -167915.33, -28100.37, -187500.02, 0
225, -164070.00, -69945.53, 46547.55, -180585.30, -103665.51, -167918.23, -28108.32, -187500.02, 0
226, -164065.47, -69754.85, 46539.10, -180586.86, -103666.80, -167918.77, -28117.42, -187500.02, 0
227, -164067.30, -69582.27, 46530.09, -180585.19, -103664.99, -167915.81, -28127.03, -187500.02, 0
228, -164067.88, -69762.16, 46527.75, -180585.30, -103664.75, -167914.88, -28136.49, -187500.02, 0
229, -164064.66, -69966.57, 46527.86, -180590.95, -103669.98, -167919.80, -28142.95, -187500.02, 0
230, -164062.84, -69822.91, 46523.70, -180592.36, -103671.05, -167920.22, -28151.73, -187500.02, 0
231, -164065.28, -69599.80, 46516.06, -180593.23, -103671.68, -167919.78, -28164.14, -187500.02, 0
232, -164067.77, -69701.19, 46512.55, -180595.09, -103673.29, -167920.53, -28175.31, -187500.02, 0
233, -164064.97, -69933.95, 46513.64, -180599.55, -103677.29, -167924.27, -28184.32, -187500.02, 0
234, -164063.23, -69861.09, 46512.32, -180601.00, -103678.36, -167924.77, -28195.88, -187500.02, 0
235, -164062.38, -69619.47, 46504.25, -180599.70, -103676.88, -167922.14, -28208.35, -187500.02, 0
236, -164061.44, -69661.53, 46499.70, -180600.80, -103677.91, -167922.13, -28219.84, -187500.02, 0
237, -164058.78, -69910.48, 46499.43, -180602.36, -103679.10, -167922.92, -28228.33, -187500.02, 0
238, -164056.02, -69894.95, 46495.94, -180604.56, -103680.80, -167924.27, -28238.32, -187500.02, 0
239, -164056.34, -69644.99, 46486.73, -180602.00, -103678.14, -167920.41, -28250.06, -187500.02, 0
240, -164057.00, -69621.48, 46481.37, -180603.47, -103679.45, -167920.69, -28263.36, -187500.02, 0
241, -164054.83, -69872.38, 46482.08, -180608.53, -103684.13, -167924.92, -28272.63, -187500.02, 0
242, -164054.52, -69941.78, 46480.52, -180612.50, -103687.64, -167928.03, -28280.52, -187500.02, 0
243, -164055.25, -69697.68, 46472.16, -180611.95, -103686.90, -167926.22, -28293.44, -187500.02, 0
244, -164055.78, -69595.22, 46464.58, -180611.59, -103686.30, -167924.56, -28306.54, -187500.02, 0
245, -164053.55, -69824.48, 46463.31, -180615.20, -103689.49, -167927.47, -28316.64, -187500.02, 0
246, -164051.14, -69951.99, 46461.56, -180617.41, -103691.30, -167928.88, -28325.72, -187500.02, 0
247, -164049.03, -69746.38, 46455.64, -180617.78, -103691.44, -167928.06, -28336.31, -187500.02, 0
248, -164052.17, -69597.48, 46450.39, -180617.44, -103690.99, -167926.39, -28347.35, -187500.02, 0
249, -164052.34, -69777.16, 46448.96, -180619.17, -103692.40, -167927.17, -28357.05, -187500.02, 0
250, -164047.88, -69951.66, 46449.49, -180626.56, -103699.35, -167933.95, -28364.83, -187500.02, 0
251, -164047.05, -69782.16, 46444.09, -180628.39, -103700.83, -167934.80, -28373.84, -187500.02, 0
252, -164048.55, -69585.56, 46435.73, -180627.14, -103699.41, -167932.16, -28387.18, -187500.02, 0
253, -164049.97, -69726.11, 46433.13, -180628.63, -103700.73, -167932.67, -28398.87, -187500.02, 0
254, -164045.06, -69937.96, 46434.94, -180630.66, -103702.34, -167934.06, -28408.35, -187500.02, 0
255, -164040.83, -69818.89, 46430.92, -180635.22, -103706.50, -167937.53, -28421.25, -187500.02, 0
0, -164042.36, -69589.29, 46423.41, -180634.19, -103705.14, -167934.97, -28434.79, -187500.02, 0
1, -164042.75, -69677.41, 46417.91, -180633.36, -103704.11, -167933.08, -28445.48, -187500.02, 0
2, -164038.53, -69916.48, 46417.15, -180634.52, -103705.03, -167933.59, -28454.06, -187500.02, 0
3, -164035.16, -69861.09, 46414.36, -180639.69, -103709.70, -167937.70, -28465.15, -187500.02, 0
4, -164033.50, -69606.37, 46405.17, -180639.69, -103709.54, -167936.41, -28479.45, -187500.02, 0
5, -164034.22, -69623.83, 46399.29, -180641.52, -103711.22, -167937.13, -28489.40, -187500.02, 0
6, -164031.36, -69896.27, 46398.55, -180644.47, -103713.79, -167939.20, -28497.56, -187500.02, 0
7, -164027.36, -69924.95, 46395.49, -180645.83, -103714.82, -167939.77, -28506.72, -187500.02, 0
8, -164031.02, -69673.65, 46389.70, -180648.78, -103717.57, -167941.48, -28517.00, -187500.02, 0
9, -164033.39, -69607.15, 46384.41, -180649.34, -103717.99, -167940.81, -28527.22, -187500.02, 0
10, -164029.86, -69848.35, 46383.02, -180652.48, -103720.70, -167943.11, -28534.88, -187500.02, 0
11, -164025.95, -69942.23, 46380.72, -180654.19, -103721.95, -167944.08, -28543.47, -187500.02, 0
12, -164026.80, -69719.00, 46373.54, -180655.58, -103723.00, -167944.19, -28554.53, -187500.02, 0
13, -164028.92, -69599.84, 46366.68, -180655.59, -103722.91, -167943.06, -28567.96, -187500.02, 0
14, -164024.72, -69807.94, 46364.63, -180656.47, -103723.49, -167943.05, -28578.87, -187500.02, 0
15, -164021.23, -69953.72, 46364.18, -180658.50, -103725.19, -167944.30, -28585.69, -187500.02, 0
16, -164024.89, -69754.27, 46358.97, -180662.11, -103728.48, -167946.69, -28596.13, -187500.02, 0
17, -164026.17, -69585.02, 46353.80, -180662.02, -103728.19, -167945.28, -28609.07, -187500.02, 0
18, -164024.73, -69760.59, 46352.78, -180661.64, -103727.52, -167943.98, -28619.75, -187500.02, 0
19, -164022.80, -69953.91, 46352.64, -180667.27, -103732.70, -167948.81, -28628.38, -187500.02, 0
20, -164019.95, -69805.14, 46346.59, -180668.66, -103733.73, -167949.22, -28639.47, -187500.02, 0
21, -164021.72, -69584.06, 46336.59, -180668.41, -103733.34, -167947.67, -28652.10, -187500.02, 0
22, -164021.44, -69706.55, 46331.43, -180669.39, -103734.15, -167947.67, -28663.27, -187500.02, 0
23, -164016.00, -69922.27, 46330.54, -180670.91, -103735.29, -167948.44, -28672.41, -187500.02, 0
24, -164014.56, -69841.60, 46325.87, -180672.45, -103736.39, -167948.91, -28682.36, -187500.02, 0
25, -164020.53, -69613.39, 46317.60, -180673.30, -103736.92, -167948.44, -28694.79, -187500.02, 0
26, -164022.58, -69665.63, 46313.44, -180673.70, -103737.17, -167947.78, -28708.78, -187500.02, 0
27, -164017.66, -69920.66, 46313.33, -180678.27, -103741.41, -167951.66, -28718.93, -187500.02, 0
28, -164013.83, -69895.67, 46309.48, -180680.55, -103743.36, -167952.95, -28728.25, -187500.02, 0
29, -164013.91, -69625.86, 46299.09, -180679.92, -103742.58, -167951.05, -28741.75, -187500.02, 0
30, -164014.28, -69606.52, 46294.02, -180679.58, -103742.11, -167949.64, -28754.33, -187500.02, 0
31, -164013.00, -69868.45, 46296.63, -180683.42, -103745.46, -167952.61, -28764.44, -187500.02, 0
32, -164008.98, -69930.49, 46296.74, -180687.06, -103748.68, -167955.47, -28774.38, -187500.02, 0
33, -164006.81, -69688.20, 46289.41, -180685.84, -103747.23, -167953.03, -28786.16, -187500.02, 0
34, -164008.00, -69599.77, 46284.56, -180684.20, -103745.44, -167950.16, -28797.23, -187500.02, 0
35, -164005.14, -69817.86, 46285.30, -180688.80, -103749.71, -167953.80, -28806.75, -187500.02, 0
36, -164002.20, -69933.76, 46286.48, -180694.77, -103755.21, -167958.88, -28817.30, -187500.02, 0
37, -164002.56, -69726.51, 46282.30, -180694.16, -103754.36, -167957.17, -28829.81, -187500.02, 0
38, -164004.41, -69582.14, 46275.80, -180693.00, -103753.11, -167954.75, -28843.65, -187500.02, 0
39, -164002.19, -69772.47, 46272.89, -180693.69, -103753.48, -167954.48, -28854.36, -187500.02, 0
40, -163999.55, -69947.46, 46271.89, -180698.78, -103758.16, -167958.95, -28861.78, -187500.02, 0
41, -163998.91, -69774.92, 46265.85, -180702.53, -103761.58, -167961.64, -28871.90, -187500.02, 0
42, -163998.56, -69570.27, 46257.40, -180700.70, -103759.63, -167958.42, -28883.46, -187500.02, 0
43, -163997.88, -69717.68, 46256.04, -180699.91, -103758.65, -167956.70, -28895.19, -187500.02, 0
44, -163994.28, -69934.90, 46255.82, -180703.81, -103762.02, -167959.77, -28905.70, -187500.02, 0
45, -163993.42, -69813.23, 46250.81, -180708.75, -103766.45, -167963.58, -28918.48, -187500.02, 0
46, -163995.50, -69587.21, 46240.82, -180709.88, -103767.45, -167963.39, -28931.47, -187500.02, 0
47, -163996.00, -69677.67, 46237.89, -180711.77, -103769.11, -167964.17, -28943.83, -187500.02, 0
48, -163994.77, -69920.01, 46238.67, -180716.11, -103773.09, -167967.91, -28953.64, -187500.02, 0
49, -163991.30, -69855.32, 46235.39, -180718.91, -103775.50, -167969.80, -28964.53, -187500.02, 0
50, -163993.94, -69602.73, 46230.43, -180718.08, -103774.48, -167967.67, -28979.24, -187500.02, 0
51, -163994.13, -69623.18, 46228.12, -180717.52, -103773.60, -167965.83, -28994.17, -187500.02, 0
52, -163990.03, -69884.23, 46230.02, -180719.33, -103775.05, -167966.92, -29004.72, -187500.02, 0
53, -163988.27, -69901.66, 46228.55, -180723.22, -103778.48, -167969.95, -29013.81, -187500.02, 0
54, -163990.14, -69651.32, 46223.00, -180724.47, -103779.52, -167969.91, -29025.39, -187500.02, 0
55, -163990.23, -69599.38, 46217.15, -180724.84, -103779.84, -167969.05, -29038.11, -187500.02, 0
56, -163985.48, -69838.16, 46218.02, -180726.92, -103781.63, -167970.42, -29047.86, -187500.02, 0
57, -163982.19, -69921.59, 46219.02, -180729.97, -103784.27, -167972.75, -29056.78, -187500.02, 0
58, -163985.16, -69691.35, 46211.74, -180730.97, -103784.98, -167972.48, -29069.36, -187500.02, 0
59, -163985.95, -69562.98, 46203.54, -180731.11, -103784.94, -167971.25, -29085.25, -187500.02, 0
60, -163985.69, -69779.48, 46202.51, -180733.66, -103787.10, -167972.89, -29098.08, -187500.02, 0
61, -163985.41, -69944.24, 46203.02, -180736.44, -103789.43, -167975.00, -29108.59, -187500.02, 0
62, -163986.94, -69746.11, 46196.61, -180737.19, -103789.95, -167974.61, -29122.13, -187500.02, 0
63, -163988.34, -69565.53, 46189.72, -180737.56, -103790.08, -167973.48, -29137.02, -187500.02, 0
64, -163986.78, -69728.01, 46189.57, -180738.72, -103790.92, -167973.63, -29149.11, -187500.02, 0
65, -163984.89, -69922.52, 46190.82, -180743.27, -103795.06, -167977.47, -29157.92, -187500.02, 0
66, -163984.22, -69774.57, 46186.19, -180745.63, -103797.20, -167978.88, -29170.19, -187500.02, 0
67, -163983.39, -69548.41, 46178.66, -180742.34, -103793.79, -167974.30, -29186.28, -187500.02, 0
68, -163981.58, -69665.13, 46173.58, -180744.45, -103795.53, -167975.39, -29200.41, -187500.02, 0
69, -163978.52, -69916.27, 46175.06, -180749.44, -103800.07, -167979.55, -29209.97, -187500.02, 0
70, -163977.98, -69840.23, 46174.07, -180749.16, -103799.51, -167978.42, -29221.13, -187500.02, 0
71, -163977.63, -69593.02, 46167.30, -180746.70, -103796.89, -167974.56, -29235.79, -187500.02, 0
72, -163979.66, -69644.99, 46163.53, -180748.52, -103798.30, -167975.28, -29248.46, -187500.02, 0
73, -163979.20, -69896.83, 46162.68, -180752.94, -103802.44, -167978.97, -29257.45, -187500.02, 0
74, -163975.78, -69870.08, 46158.68, -180755.17, -103804.34, -167980.28, -29268.58, -187500.02, 0
75, -163976.28, -69604.56, 46151.68, -180753.64, -103802.48, -167977.36, -29283.18, -187500.02, 0
76, -163976.34, -69588.16, 46147.25, -180755.98, -103804.56, -167978.50, -29297.79, -187500.02, 0
77, -163971.94, -69838.41, 46150.05, -180761.33, -103809.63, -167983.05, -29308.88, -187500.02, 0
78, -163969.91, -69879.06, 46148.86, -180762.86, -103810.82, -167983.81, -29318.16, -187500.02, 0
79, -163970.78, -69626.17, 46139.77, -180762.70, -103810.44, -167982.36, -29328.71, -187500.02, 0
80, -163971.88, -69544.27, 46133.95, -180764.50, -103812.14, -167982.94, -29342.18, -187500.02, 0
81, -163968.75, -69782.88, 46134.65, -180767.78, -103815.06, -167985.41, -29353.85, -187500.02, 0
82, -163963.61, -69900.43, 46135.72, -180770.83, -103817.45, -167987.64, -29364.45, -187500.02, 0
83, -163962.47, -69685.72, 46131.18, -180771.98, -103818.40, -167987.59, -29379.15, -187500.02, 0
84, -163965.47, -69544.73, 46125.86, -180773.75, -103819.96, -167988.02, -29394.46, -187500.02, 0
85, -163965.13, -69744.86, 46126.22, -180775.30, -103821.28, -167988.70, -29405.37, -187500.02, 0
86, -163962.33, -69913.41, 46128.88, -180778.58, -103824.16, -167991.25, -29415.54, -187500.02, 0
87, -163962.36, -69725.26, 46122.91, -180779.72, -103824.97, -167991.33, -29427.68, -187500.02, 0
88, -163963.39, -69536.99, 46114.31, -180779.81, -103824.99, -167990.14, -29440.67, -187500.02, 0
89, -163961.47, -69696.07, 46111.04, -180780.20, -103825.08, -167989.56, -29452.31, -187500.02, 0
90, -163957.84, -69910.35, 46110.64, -180781.66, -103826.11, -167990.30, -29463.33, -187500.02, 0
91, -163955.78, -69789.25, 46106.46, -180784.17, -103828.23, -167991.66, -29475.04, -187500.02, 0
92, -163958.80, -69546.35, 46099.80, -180783.23, -103827.02, -167989.30, -29490.35, -187500.02, 0
93, -163959.47, -69628.81, 46094.64, -180784.30, -103827.91, -167989.38, -29504.86, -187500.02, 0
94, -163958.25, -69880.29, 46096.14, -180788.61, -103831.90, -167992.95, -29515.95, -187500.02, 0
95, -163956.36, -69819.96, 46094.50, -180791.97, -103834.94, -167995.48, -29527.70, -187500.02, 0
96, -163955.22, -69576.98, 46088.13, -180790.31, -103833.05, -167992.39, -29541.79, -187500.02, 0
97, -163954.89, -69608.05, 46085.50, -180792.34, -103834.66, -167993.06, -29553.79, -187500.02, 0
98, -163952.92, -69857.80, 46086.81, -180793.84, -103835.72, -167993.77, -29562.46, -187500.02, 0
99, -163950.67, -69863.98, 46085.79, -180797.44, -103838.98, -167996.73, -29571.69, -187500.02, 0
100, -163951.11, -69615.24, 46078.61, -180797.00, -103838.38, -167995.03, -29586.49, -187500.02, 0
101, -163951.88, -69565.91, 46072.55, -180797.64, -103838.80, -167994.36, -29602.07, -187500.02, 0
102, -163950.58, -69806.53, 46073.92, -180801.36, -103842.20, -167997.31, -29614.00, -187500.02, 0
103, -163947.11, -69898.35, 46073.63, -180803.03, -103843.38, -167998.14, -29624.76, -187500.02, 0
104, -163945.84, -69665.80, 46066.95, -180803.08, -103843.23, -167997.06, -29637.65, -187500.02, 0
105, -163949.61, -69551.43, 46061.27, -180803.23, -103843.25, -167995.97, -29651.60, -187500.02, 0
106, -163944.16, -69768.35, 46062.21, -180807.75, -103847.34, -167999.53, -29663.89, -187500.02, 0
107, -163939.84, -69914.16, 46063.32, -180810.97, -103850.13, -168001.89, -29676.21, -187500.02, 0
108, -163942.23, -69704.12, 46056.19, -180810.81, -103849.77, -168000.64, -29689.91, -187500.02, 0
109, -163945.23, -69535.23, 46048.19, -180810.86, -103849.64, -167999.33, -29704.60, -187500.02, 0
110, -163944.03, -69722.06, 46047.50, -180813.17, -103851.77, -168000.64, -29719.19, -187500.02, 0
111, -163938.59, -69914.02, 46049.24, -180816.36, -103854.43, -168003.03, -29730.41, -187500.02, 0
112, -163938.39, -69748.30, 46045.53, -180820.13, -103857.87, -168005.78, -29742.62, -187500.02, 0
113, -163940.94, -69533.80, 46039.29, -180820.05, -103857.63, -168004.31, -29756.45, -187500.02, 0
114, -163941.30, -69655.90, 46039.32, -180819.17, -103856.57, -168002.45, -29767.90, -187500.02, 0
115, -163936.88, -69889.30, 46041.80, -180823.28, -103860.26, -168006.03, -29779.21, -187500.02, 0
116, -163933.09, -69804.52, 46036.39, -180825.70, -103862.32, -168007.47, -29792.28, -187500.02, 0
117, -163935.44, -69553.42, 46027.67, -180825.00, -103861.42, -168005.45, -29807.64, -187500.02, 0
118, -163934.22, -69620.30, 46025.21, -180826.33, -103862.52, -168005.52, -29821.45, -187500.02, 0
119, -163933.44, -69882.77, 46026.69, -180831.28, -103867.13, -168009.66, -29831.84, -187500.02, 0
120, -163933.86, -69850.70, 46022.51, -180834.33, -103869.73, -168011.89, -29844.43, -187500.02, 0
121, -163935.05, -69589.05, 46013.61, -180833.81, -103868.93, -168010.14, -29860.72, -187500.02, 0
122, -163936.63, -69576.10, 46008.11, -180832.48, -103867.44, -168007.53, -29875.61, -187500.02, 0
123, -163932.92, -69828.79, 46009.34, -180835.80, -103870.38, -168010.19, -29886.23, -187500.02, 0
124, -163930.80, -69864.48, 46008.88, -180838.56, -103872.71, -168012.06, -29897.71, -187500.02, 0
125, -163932.73, -69603.02, 46000.56, -180839.80, -103873.70, -168011.94, -29912.18, -187500.02, 0
126, -163933.00, -69535.65, 45995.38, -180840.11, -103873.83, -168010.97, -29928.11, -187500.02, 0
127, -163926.84, -69786.70, 45997.96, -180841.63, -103875.02, -168011.59, -29939.87, -187500.02, 0
128, -163923.36, -69892.02, 45997.95, -180847.27, -103880.11, -168016.52, -29951.09, -187500.02, 0
129, -163922.45, -69658.34, 45991.11, -180848.56, -103881.20, -168016.56, -29964.64, -187500.02, 0
130, -163923.69, -69515.66, 45984.00, -180846.53, -103878.99, -168013.20, -29980.30, -187500.02, 0
131, -163922.75, -69720.03, 45982.41, -180848.67, -103880.82, -168014.45, -29992.89, -187500.02, 0
132, -163920.88, -69883.58, 45984.73, -180853.55, -103885.25, -168018.55, -30003.24, -187500.02, 0
133, -163919.91, -69692.34, 45982.03, -180855.78, -103887.26, -168019.69, -30016.11, -187500.02, 0
134, -163923.22, -69503.35, 45975.61, -180852.14, -103883.48, -168014.69, -30030.75, -187500.02, 0
135, -163922.84, -69672.48, 45973.65, -180851.16, -103882.16, -168012.72, -30042.80, -187500.02, 0
136, -163921.78, -69882.50, 45974.27, -180855.38, -103885.85, -168016.16, -30052.75, -187500.02, 0
137, -163919.63, -69778.16, 45969.25, -180857.92, -103888.00, -168017.67, -30064.71, -187500.02, 0
138, -163920.06, -69542.91, 45961.06, -180858.53, -103888.49, -168017.09, -30079.55, -187500.02, 0
139, -163919.02, -69631.47, 45957.84, -180860.63, -103890.39, -168018.11, -30092.22, -187500.02, 0
140, -163915.38, -69868.17, 45961.02, -180864.44, -103893.79, -168021.05, -30102.86, -187500.02, 0
141, -163912.09, -69794.55, 45958.92, -180866.20, -103895.24, -168021.98, -30114.55, -187500.02, 0
142, -163910.88, -69550.13, 45951.23, -180863.88, -103892.73, -168018.48, -30129.17, -187500.02, 0
143, -163910.91, -69591.91, 45947.90, -180866.83, -103895.42, -168020.22, -30141.62, -187500.02, 0
144, -163909.50, -69837.22, 45949.20, -180870.88, -103898.99, -168023.38, -30153.55, -187500.02, 0
145, -163906.67, -69846.49, 45949.84, -180871.92, -103899.73, -168023.59, -30165.44, -187500.02, 0
146, -163909.83, -69596.09, 45942.54, -180871.63, -103899.15, -168021.95, -30180.13, -187500.02, 0
147, -163912.47, -69552.66, 45938.22, -180870.83, -103898.21, -168019.88, -30195.55, -187500.02, 0
148, -163907.33, -69801.68, 45939.92, -180874.56, -103901.55, -168022.81, -30206.86, -187500.02, 0
149, -163903.92, -69884.73, 45938.82, -180877.73, -103904.25, -168025.23, -30218.91, -187500.02, 0
150, -163905.98, -69646.05, 45931.13, -180879.56, -103905.84, -168025.88, -30233.01, -187500.02, 0
151, -163906.50, -69537.28, 45926.24, -180881.31, -103907.45, -168026.47, -30248.30, -187500.02, 0
152, -163904.02, -69752.95, 45929.55, -180882.30, -103908.02, -168026.53, -30261.49, -187500.02, 0
153, -163898.61, -69890.35, 45932.41, -180884.39, -103909.70, -168027.95, -30271.79, -187500.02, 0
154, -163901.16, -69690.57, 45927.38, -180885.83, -103910.98, -168028.30, -30285.67, -187500.02, 0
155, -163904.27, -69523.06, 45919.78, -180885.28, -103910.38, -168026.38, -30301.03, -187500.02, 0
156, -163901.06, -69704.63, 45916.92, -180889.02, -103913.68, -168028.98, -30313.79, -187500.02, 0
157, -163897.78, -69896.05, 45917.14, -180891.31, -103915.47, -168030.50, -30323.87, -187500.02, 0
158, -163895.44, -69736.05, 45913.48, -180893.53, -103917.41, -168031.72, -30336.81, -187500.02, 0
159, -163893.84, -69523.29, 45905.61, -180893.56, -103917.33, -168030.38, -30352.82, -187500.02, 0
160, -163892.50, -69652.26, 45902.79, -180893.88, -103917.39, -168029.69, -30365.34, -187500.02, 0
161, -163890.06, -69881.66, 45905.61, -180898.09, -103921.17, -168033.13, -30377.38, -187500.02, 0
162, -163891.86, -69789.05, 45904.00, -180903.03, -103925.70, -168037.03, -30389.34, -187500.02, 0
163, -163895.14, -69536.68, 45897.54, -180902.58, -103925.13, -168035.31, -30402.64, -187500.02, 0
164, -163892.84, -69618.69, 45895.64, -180901.31, -103923.80, -168033.03, -30416.52, -187500.02, 0
165, -163889.78, -69871.66, 45897.09, -180904.89, -103926.94, -168035.80, -30428.28, -187500.02, 0
166, -163888.84, -69829.10, 45895.53, -180908.75, -103930.38, -168038.70, -30440.59, -187500.02, 0
167, -163891.02, -69567.26, 45890.68, -180908.58, -103930.06, -168037.39, -30454.45, -187500.02, 0
168, -163890.34, -69559.32, 45888.44, -180909.63, -103930.87, -168037.23, -30466.90, -187500.02, 0
169, -163888.30, -69819.76, 45890.77, -180911.97, -103932.73, -168038.70, -30477.81, -187500.02, 0
170, -163886.03, -69881.30, 45888.04, -180913.31, -103933.69, -168039.20, -30489.14, -187500.02, 0
171, -163888.19, -69623.06, 45879.97, -180914.59, -103934.83, -168039.22, -30503.42, -187500.02, 0
172, -163890.19, -69539.49, 45874.68, -180913.67, -103933.69, -168037.02, -30519.16, -187500.02, 0
173, -163883.92, -69783.30, 45875.97, -180916.84, -103936.41, -168039.27, -30532.17, -187500.02, 0
174, -163879.30, -69885.09, 45877.16, -180921.78, -103940.93, -168043.47, -30543.66, -187500.02, 0
175, -163879.56, -69653.13, 45871.68, -180920.75, -103939.66, -168041.23, -30557.65, -187500.02, 0
176, -163880.33, -69511.60, 45866.31, -180921.19, -103939.95, -168040.34, -30574.50, -187500.02, 0
177, -163878.78, -69704.78, 45866.38, -180923.47, -103941.87, -168041.73, -30587.40, -187500.02, 0
178, -163876.08, -69879.06, 45867.52, -180925.45, -103943.48, -168043.06, -30597.77, -187500.02, 0
179, -163874.42, -69711.13, 45863.12, -180925.81, -103943.59, -168042.23, -30611.85, -187500.02, 0
180, -163877.36, -69521.73, 45855.86, -180924.78, -103942.25, -168039.83, -30628.24, -187500.02, 0
181, -163877.36, -69680.63, 45855.81, -180929.23, -103946.27, -168043.14, -30642.32, -187500.02, 0
182, -163872.80, -69890.08, 45856.46, -180932.92, -103949.73, -168046.20, -30654.05, -187500.02, 0
183, -163870.67, -69749.29, 45852.43, -180933.94, -103950.45, -168046.25, -30666.44, -187500.02, 0
184, -163872.13, -69517.59, 45844.86, -180933.28, -103949.60, -168044.28, -30679.94, -187500.02, 0
185, -163872.61, -69617.34, 45838.87, -180935.84, -103951.74, -168045.64, -30693.44, -187500.02, 0
186, -163869.69, -69865.47, 45839.54, -180937.19, -103952.69, -168046.22, -30705.66, -187500.02, 0
187, -163867.09, -69808.34, 45836.77, -180938.66, -103953.84, -168046.67, -30718.65, -187500.02, 0
188, -163868.55, -69555.92, 45828.14, -180940.19, -103955.21, -168047.03, -30733.42, -187500.02, 0
189, -163866.89, -69579.95, 45824.20, -180938.34, -103953.24, -168044.14, -30748.31, -187500.02, 0
190, -163865.81, -69828.41, 45825.81, -180941.98, -103956.53, -168046.94, -30761.05, -187500.02, 0
191, -163866.31, -69841.98, 45824.63, -180947.06, -103961.20, -168051.05, -30773.90, -187500.02, 0
192, -163867.27, -69586.50, 45816.45, -180948.05, -103962.01, -168050.72, -30789.97, -187500.02, 0
193, -163866.98, -69549.71, 45812.34, -180947.63, -103961.40, -168049.14, -30806.71, -187500.02, 0
194, -163864.19, -69800.74, 45815.00, -180950.38, -103963.75, -168051.11, -30819.01, -187500.02, 0
195, -163859.47, -69867.84, 45814.79, -180954.59, -103967.46, -168054.47, -30829.34, -187500.02, 0
196, -163859.72, -69622.38, 45807.08, -180953.06, -103965.70, -168051.67, -30843.39, -187500.02, 0
197, -163859.38, -69512.52, 45801.81, -180954.05, -103966.43, -168051.41, -30858.39, -187500.02, 0
198, -163858.20, -69736.19, 45802.63, -180957.50, -103969.59, -168054.05, -30872.34, -187500.02, 0
199, -163854.84, -69873.36, 45802.39, -180960.30, -103971.95, -168056.09, -30884.92, -187500.02, 0
200, -163853.95, -69671.63, 45797.88, -180961.22, -103972.58, -168055.81, -30900.59, -187500.02, 0
201, -163853.61, -69520.88, 45792.66, -180959.50, -103970.74, -168052.75, -30918.85, -187500.02, 0
202, -163849.80, -69708.88, 45794.18, -180960.30, -103971.17, -168052.64, -30933.40, -187500.02, 0
203, -163848.81, -69883.20, 45799.08, -180964.95, -103975.41, -168056.53, -30943.33, -187500.02, 0
204, -163850.00, -69714.40, 45796.93, -180966.22, -103976.38, -168056.66, -30957.05, -187500.02, 0
205, -163853.17, -69510.03, 45790.96, -180964.44, -103974.37, -168053.48, -30973.26, -187500.02, 0
206, -163851.06, -69646.87, 45791.70, -180967.31, -103977.12, -168055.50, -30987.81, -187500.02, 0
207, -163847.42, -69872.69, 45796.71, -180974.16, -103983.42, -168061.55, -31000.79, -187500.02, 0
208, -163846.58, -69763.39, 45796.35, -180975.50, -103984.45, -168061.84, -31013.42, -187500.02, 0
209, -163849.61, -69519.47, 45788.64, -180974.95, -103983.80, -168059.91, -31028.89, -187500.02, 0
210, -163851.52, -69575.75, 45785.96, -180976.08, -103984.71, -168059.88, -31044.70, -187500.02, 0
211, -163849.88, -69829.89, 45787.14, -180980.86, -103989.05, -168063.94, -31056.32, -187500.02, 0
212, -163850.11, -69803.27, 45786.03, -180985.56, -103993.25, -168067.66, -31066.62, -187500.02, 0
213, -163851.33, -69556.03, 45781.00, -180982.94, -103990.52, -168063.81, -31082.04, -187500.02, 0
214, -163850.84, -69555.43, 45777.45, -180980.70, -103988.09, -168060.34, -31099.48, -187500.02, 0
215, -163847.20, -69802.87, 45777.69, -180984.02, -103990.98, -168062.84, -31113.94, -187500.02, 0
216, -163844.00, -69839.43, 45775.23, -180987.72, -103994.41, -168065.98, -31126.03, -187500.02, 0
217, -163845.36, -69587.88, 45768.95, -180988.17, -103994.66, -168065.13, -31139.58, -187500.02, 0
218, -163845.64, -69520.27, 45765.46, -180987.81, -103994.02, -168063.47, -31154.82, -187500.02, 0
219, -163842.39, -69756.08, 45765.60, -180991.30, -103997.09, -168065.98, -31168.34, -187500.02, 0
220, -163840.27, -69859.39, 45766.40, -180996.58, -104001.95, -168070.45, -31179.52, -187500.02, 0
221, -163841.92, -69638.45, 45762.18, -180995.45, -104000.67, -168068.28, -31194.83, -187500.02, 0
222, -163843.09, -69510.26, 45756.55, -180994.05, -103999.02, -168065.42, -31211.37, -187500.02, 0
223, -163838.75, -69718.58, 45756.63, -180998.55, -104003.06, -168068.95, -31226.86, -187500.02, 0
224, -163835.80, -69873.52, 45759.41, -181001.97, -104006.10, -168071.66, -31240.63, -187500.02, 0
225, -163833.86, -69678.97, 45755.94, -181004.00, -104007.89, -168072.50, -31255.61, -187500.02, 0
226, -163833.63, -69498.81, 45750.82, -181002.39, -104006.02, -168069.56, -31273.04, -187500.02, 0
227, -163832.61, -69663.57, 45749.97, -181003.86, -104007.18, -168069.95, -31288.35, -187500.02, 0
228, -163829.72, -69866.55, 45751.76, -181007.80, -104010.69, -168073.16, -31301.29, -187500.02, 0
229, -163829.63, -69729.46, 45748.43, -181009.69, -104012.23, -168074.00, -31315.66, -187500.02, 0
230, -163834.48, -69489.72, 45743.18, -181009.03, -104011.42, -168071.98, -31332.61, -187500.02, 0
231, -163832.52, -69582.48, 45739.89, -181010.59, -104012.66, -168072.48, -31347.29, -187500.02, 0
232, -163828.80, -69837.09, 45738.46, -181014.67, -104016.21, -168075.86, -31359.74, -187500.02, 0
233, -163828.02, -69760.84, 45735.36, -181018.03, -104019.23, -168078.31, -31373.44, -187500.02, 0
234, -163829.03, -69530.77, 45731.64, -181016.52, -104017.62, -168075.52, -31388.80, -187500.02, 0
235, -163827.64, -69576.71, 45729.61, -181016.33, -104017.21, -168074.20, -31403.22, -187500.02, 0
236, -163823.97, -69819.13, 45730.15, -181021.56, -104022.02, -168078.55, -31415.55, -187500.02, 0
237, -163819.70, -69814.20, 45728.18, -181023.98, -104024.05, -168080.02, -31428.50, -187500.02, 0
238, -163822.50, -69558.80, 45722.66, -181023.55, -104023.31, -168078.23, -31444.97, -187500.02, 0
239, -163824.92, -69512.18, 45718.88, -181023.33, -104022.91, -168076.86, -31460.91, -187500.02, 0
240, -163822.44, -69776.38, 45721.00, -181027.17, -104026.40, -168079.81, -31473.54, -187500.02, 0
241, -163817.14, -69846.59, 45721.50, -181030.59, -104029.35, -168082.44, -31486.28, -187500.02, 0
242, -163819.80, -69594.37, 45716.51, -181030.89, -104029.51, -168081.69, -31500.60, -187500.02, 0
243, -163821.98, -69505.43, 45711.86, -181031.58, -104030.09, -168081.14, -31517.43, -187500.02, 0
244, -163817.38, -69739.61, 45714.59, -181034.23, -104032.23, -168082.72, -31532.32, -187500.02, 0
245, -163815.45, -69873.36, 45719.22, -181037.23, -104034.85, -168084.95, -31546.00, -187500.02, 0
246, -163818.30, -69653.42, 45715.26, -181036.16, -104033.53, -168082.75, -31560.48, -187500.02, 0
247, -163818.30, -69489.38, 45708.60, -181035.17, -104032.37, -168080.42, -31576.08, -187500.02, 0
248, -163815.44, -69676.76, 45709.50, -181038.48, -104035.30, -168082.77, -31589.99, -187500.02, 0
249, -163810.50, -69858.84, 45711.35, -181042.73, -104039.14, -168086.23, -31602.57, -187500.02, 0
250, -163809.72, -69691.15, 45704.91, -181043.30, -104039.34, -168085.72, -31616.70, -187500.02, 0
251, -163811.95, -69484.27, 45698.34, -181043.84, -104039.74, -168084.91, -31631.34, -187500.02, 0
252, -163812.08, -69625.84, 45698.07, -181046.42, -104041.96, -168086.52, -31643.83, -187500.02, 0
253, -163808.38, -69858.12, 45699.46, -181051.05, -104046.27, -168090.41, -31654.36, -187500.02, 0
254, -163806.08, -69740.03, 45696.33, -181051.89, -104046.85, -168090.25, -31669.04, -187500.02, 0
255, -163807.92, -69491.26, 45689.00, -181051.73, -104046.47, -168088.73, -31687.49, -187500.02, 0
0, -163809.02, -69570.45, 45686.81, -181053.19, -104047.68, -168089.11, -31703.18, -187500.02, 0
1, -163804.50, -69821.86, 45689.73, -181056.08, -104050.09, -168091.19, -31716.14, -187500.02, 0
2, -163802.27, -69776.04, 45689.47, -181058.75, -104052.42, -168092.98, -31730.56, -187500.02, 0
3, -163804.75, -69525.19, 45683.19, -181059.03, -104052.55, -168091.91, -31747.01, -187500.02, 0
4, -163806.78, -69533.19, 45680.64, -181060.91, -104054.12, -168092.58, -31764.17, -187500.02, 0
5, -163800.94, -69780.84, 45684.84, -181062.36, -104055.16, -168093.19, -31777.12, -187500.02, 0
6, -163795.91, -69801.37, 45684.95, -181066.72, -104059.19, -168096.73, -31789.79, -187500.02, 0
7, -163797.75, -69549.80, 45677.91, -181065.91, -104058.05, -168094.56, -31807.00, -187500.02, 0
8, -163798.97, -69495.51, 45671.50, -181064.39, -104056.33, -168091.80, -31824.35, -187500.02, 0
9, -163795.83, -69728.14, 45671.72, -181068.50, -104060.02, -168095.03, -31836.97, -187500.02, 0
10, -163794.72, -69808.34, 45672.12, -181071.13, -104062.14, -168096.83, -31849.29, -187500.02, 0
11, -163794.61, -69583.48, 45667.61, -181070.84, -104061.74, -168095.34, -31865.74, -187500.02, 0
12, -163794.63, -69468.59, 45662.33, -181069.08, -104059.86, -168092.41, -31884.14, -187500.02, 0
13, -163793.94, -69679.02, 45662.06, -181070.67, -104061.07, -168093.05, -31899.27, -187500.02, 0
14, -163793.44, -69831.43, 45660.07, -181075.14, -104065.05, -168096.73, -31913.13, -187500.02, 0
15, -163792.27, -69632.07, 45654.84, -181077.44, -104067.13, -168097.92, -31929.15, -187500.02, 0
16, -163791.66, -69457.24, 45649.57, -181076.89, -104066.41, -168095.86, -31945.27, -187500.02, 0
17, -163790.00, -69643.81, 45649.48, -181079.20, -104068.38, -168097.20, -31961.14, -187500.02, 0
18, -163788.64, -69841.17, 45650.04, -181083.72, -104072.38, -168101.05, -31975.87, -187500.02, 0
19, -163785.89, -69690.86, 45644.29, -181087.95, -104076.38, -168104.31, -31990.31, -187500.02, 0
20, -163786.02, -69471.19, 45636.98, -181087.95, -104076.29, -168102.95, -32007.05, -187500.02, 0
21, -163784.33, -69569.87, 45633.45, -181086.27, -104074.32, -168100.17, -32023.01, -187500.02, 0
22, -163780.84, -69796.31, 45634.46, -181088.70, -104076.11, -168101.63, -32036.17, -187500.02, 0
23, -163780.66, -69713.63, 45631.78, -181091.92, -104078.97, -168103.91, -32050.43, -187500.02, 0
24, -163781.70, -69474.05, 45627.69, -181091.55, -104078.52, -168102.34, -32068.63, -187500.02, 0
25, -163780.95, -69525.55, 45626.77, -181090.83, -104077.56, -168100.48, -32087.58, -187500.02, 0
26, -163779.41, -69775.86, 45627.13, -181094.55, -104080.88, -168103.47, -32103.63, -187500.02, 0
27, -163776.97, -69765.24, 45623.91, -181097.30, -104083.29, -168105.36, -32119.25, -187500.02, 0
28, -163779.36, -69510.26, 45618.05, -181095.91, -104081.70, -168102.64, -32135.86, -187500.02, 0
29, -163779.97, -69495.41, 45617.47, -181096.20, -104081.77, -168101.58, -32151.82, -187500.02, 0
30, -163778.47, -69743.20, 45621.32, -181099.70, -104084.83, -168104.25, -32164.03, -187500.02, 0
31, -163772.75, -69800.00, 45624.78, -181101.14, -104085.79, -168104.92, -32178.26, -187500.02, 0
32, -163772.14, -69554.85, 45621.52, -181101.66, -104086.17, -168104.20, -32193.87, -187500.02, 0
33, -163774.20, -69467.56, 45613.94, -181102.02, -104086.37, -168103.28, -32211.32, -187500.02, 0
34, -163771.94, -69710.26, 45612.00, -181105.31, -104089.25, -168105.66, -32226.50, -187500.02, 0
35, -163765.75, -69817.10, 45612.67, -181108.44, -104091.96, -168108.11, -32241.54, -187500.02, 0
36, -163767.94, -69606.99, 45607.13, -181109.05, -104092.31, -168107.53, -32258.28, -187500.02, 0
37, -163770.44, -69466.41, 45601.65, -181110.55, -104093.68, -168107.73, -32275.94, -187500.02, 0
38, -163768.45, -69661.09, 45602.61, -181112.52, -104095.24, -168108.67, -32288.57, -187500.02, 0
39, -163766.67, -69844.53, 45604.73, -181118.28, -104100.52, -168113.59, -32300.35, -187500.02, 0
40, -163767.36, -69670.97, 45601.11, -181119.22, -104101.26, -168113.44, -32315.73, -187500.02, 0
41, -163768.14, -69464.23, 45596.75, -181118.17, -104100.05, -168111.06, -32331.51, -187500.02, 0
42, -163768.16, -69603.48, 45597.09, -181119.33, -104100.88, -168111.22, -32347.31, -187500.02, 0
43, -163763.83, -69829.02, 45599.34, -181123.31, -104104.50, -168114.58, -32361.05, -187500.02, 0
44, -163761.19, -69716.81, 45597.42, -181124.67, -104105.48, -168114.91, -32374.53, -187500.02, 0
45, -163764.13, -69479.91, 45591.54, -181124.52, -104105.13, -168113.34, -32392.06, -187500.02, 0
46, -163763.66, -69557.95, 45590.00, -181126.33, -104106.63, -168113.97, -32408.46, -187500.02, 0
47, -163760.63, -69794.70, 45594.23, -181130.91, -104110.82, -168117.80, -32424.24, -187500.02, 0
48, -163760.25, -69751.05, 45595.03, -181132.11, -104111.67, -168118.03, -32438.84, -187500.02, 0
49, -163762.20, -69507.09, 45590.70, -181130.06, -104109.44, -168114.77, -32456.01, -187500.02, 0
50, -163764.08, -69521.21, 45587.90, -181132.30, -104111.38, -168115.67, -32472.99, -187500.02, 0
51, -163759.52, -69765.54, 45588.93, -181136.00, -104114.73, -168118.58, -32488.84, -187500.02, 0
52, -163756.94, -69786.32, 45588.41, -181137.45, -104115.70, -168119.11, -32503.88, -187500.02, 0
53, -163756.50, -69534.40, 45581.53, -181136.78, -104114.78, -168117.19, -32518.48, -187500.02, 0
54, -163758.47, -69481.65, 45575.56, -181139.00, -104116.86, -168118.17, -32534.26, -187500.02, 0
55, -163759.45, -69724.56, 45576.41, -181143.06, -104120.57, -168121.36, -32549.64, -187500.02, 0
56, -163758.38, -69819.63, 45576.75, -181145.02, -104122.06, -168122.69, -32564.30, -187500.02, 0
57, -163756.36, -69591.82, 45570.80, -181145.14, -104121.95, -168121.50, -32580.06, -187500.02, 0
58, -163755.13, -69477.73, 45565.01, -181144.28, -104120.93, -168119.28, -32598.43, -187500.02, 0
59, -163752.03, -69686.57, 45566.18, -181146.94, -104123.20, -168120.94, -32614.44, -187500.02, 0
60, -163749.41, -69834.09, 45567.79, -181153.53, -104129.30, -168126.78, -32631.06, -187500.02, 0
61, -163747.95, -69636.03, 45563.79, -181153.70, -104129.20, -168125.88, -32649.91, -187500.02, 0
62, -163748.06, -69461.91, 45558.82, -181152.25, -104127.61, -168123.13, -32668.21, -187500.02, 0
63, -163748.06, -69635.78, 45559.54, -181155.11, -104130.18, -168124.98, -32683.64, -187500.02, 0
64, -163745.55, -69826.35, 45562.26, -181159.34, -104133.98, -168128.45, -32696.73, -187500.02, 0
65, -163743.38, -69673.63, 45558.57, -181160.45, -104134.92, -168128.59, -32712.13, -187500.02, 0
66, -163745.09, -69459.18, 45552.52, -181158.84, -104133.00, -168125.50, -32728.70, -187500.02, 0
67, -163745.39, -69569.55, 45552.05, -181161.44, -104135.32, -168127.11, -32744.88, -187500.02, 0
68, -163742.70, -69812.85, 45554.51, -181165.48, -104138.83, -168130.36, -32762.31, -187500.02, 0
69, -163741.72, -69721.03, 45552.72, -181166.97, -104140.06, -168130.80, -32778.77, -187500.02, 0
70, -163744.47, -69472.55, 45546.77, -181167.25, -104140.17, -168129.80, -32798.12, -187500.02, 0
71, -163744.09, -69518.95, 45543.33, -181168.80, -104141.45, -168130.08, -32816.47, -187500.02, 0
72, -163740.73, -69766.07, 45544.05, -181172.30, -104144.58, -168132.77, -32830.58, -187500.02, 0
73, -163738.23, -69751.14, 45543.00, -181173.98, -104145.80, -168133.55, -32845.53, -187500.02, 0
74, -163740.97, -69494.50, 45537.30, -181174.52, -104146.12, -168132.77, -32863.55, -187500.02, 0
75, -163741.34, -69477.22, 45534.32, -181175.50, -104146.81, -168132.59, -32881.11, -187500.02, 0
76, -163737.36, -69735.05, 45534.41, -181177.53, -104148.46, -168133.77, -32896.27, -187500.02, 0
77, -163734.38, -69798.28, 45531.69, -181179.92, -104150.38, -168135.34, -32910.17, -187500.02, 0
78, -163734.66, -69550.83, 45524.00, -181179.69, -104150.03, -168133.86, -32927.56, -187500.02, 0
79, -163735.06, -69453.55, 45519.21, -181181.48, -104151.77, -168134.42, -32947.12, -187500.02, 0
80, -163730.50, -69688.52, 45519.84, -181184.89, -104154.70, -168136.92, -32963.28, -187500.02, 0
81, -163726.61, -69814.22, 45520.20, -181188.08, -104157.52, -168139.31, -32977.83, -187500.02, 0
82, -163729.47, -69596.34, 45514.70, -181187.44, -104156.55, -168137.42, -32994.21, -187500.02, 0
83, -163729.89, -69435.40, 45509.29, -181186.67, -104155.75, -168135.42, -33010.42, -187500.02, 0
84, -163729.72, -69640.66, 45511.79, -181188.73, -104157.36, -168136.48, -33024.39, -187500.02, 0
85, -163727.94, -69827.02, 45515.04, -181194.45, -104162.57, -168141.42, -33037.13, -187500.02, 0
86, -163726.13, -69636.25, 45510.41, -181195.02, -104162.70, -168140.81, -33052.55, -187500.02, 0
87, -163728.67, -69427.35, 45503.37, -181193.97, -104161.52, -168138.52, -33069.02, -187500.02, 0
88, -163728.67, -69604.58, 45501.69, -181194.16, -104161.45, -168137.70, -33085.07, -187500.02, 0
89, -163725.61, -69826.22, 45503.39, -181199.64, -104166.44, -168142.27, -33099.78, -187500.02, 0
90, -163724.94, -69696.16, 45501.76, -181201.47, -104168.00, -168143.14, -33115.36, -187500.02, 0
91, -163726.13, -69463.88, 45497.42, -181200.38, -104166.77, -168140.80, -33134.54, -187500.02, 0
92, -163725.56, -69558.94, 45498.00, -181202.77, -104168.96, -168142.05, -33153.58, -187500.02, 0
93, -163722.20, -69803.73, 45501.55, -181206.45, -104172.07, -168144.84, -33168.09, -187500.02, 0
94, -163721.16, -69755.12, 45500.06, -181207.22, -104172.49, -168144.72, -33182.37, -187500.02, 0
95, -163721.81, -69493.23, 45494.43, -181204.06, -104169.30, -168140.34, -33200.74, -187500.02, 0
96, -163721.88, -69504.58, 45491.79, -181206.86, -104171.76, -168141.81, -33217.06, -187500.02, 0
97, -163718.45, -69758.72, 45492.28, -181209.94, -104174.48, -168144.05, -33232.01, -187500.02, 0
98, -163715.84, -69786.32, 45490.00, -181214.13, -104178.28, -168147.42, -33249.07, -187500.02, 0
99, -163714.78, -69531.29, 45482.89, -181213.95, -104177.86, -168146.00, -33266.75, -187500.02, 0
100, -163712.63, -69481.55, 45479.52, -181214.22, -104177.88, -168144.81, -33285.41, -187500.02, 0
101, -163710.14, -69724.34, 45480.97, -181217.44, -104180.52, -168147.16, -33302.00, -187500.02, 0
102, -163707.72, -69808.72, 45480.75, -181220.89, -104183.66, -168149.91, -33317.84, -187500.02, 0
103, -163708.75, -69576.33, 45475.67, -181221.45, -104184.12, -168149.33, -33335.35, -187500.02, 0
104, -163711.14, -69455.20, 45472.03, -181222.02, -104184.52, -168148.53, -33354.48, -187500.02, 0
105, -163707.77, -69677.45, 45473.97, -181223.47, -104185.57, -168149.03, -33370.04, -187500.02, 0
106, -163705.88, -69822.78, 45476.70, -181227.22, -104188.85, -168151.97, -33382.15, -187500.02, 0
107, -163705.13, -69617.73, 45470.35, -181228.86, -104190.02, -168152.44, -33399.38, -187500.02, 0
108, -163705.64, -69437.16, 45461.77, -181229.55, -104190.53, -168151.72, -33418.09, -187500.02, 0
109, -163703.23, -69622.13, 45460.90, -181231.27, -104192.02, -168152.44, -33435.13, -187500.02, 0
110, -163701.98, -69821.88, 45461.01, -181232.98, -104193.44, -168153.53, -33451.11, -187500.02, 0
111, -163701.88, -69668.35, 45456.20, -181235.38, -104195.42, -168154.78, -33468.99, -187500.02, 0
112, -163705.53, -69445.68, 45450.84, -181234.20, -104194.13, -168152.25, -33488.59, -187500.02, 0
113, -163705.02, -69567.68, 45451.27, -181237.30, -104196.95, -168154.22, -33505.49, -187500.02, 0
114, -163700.97, -69803.65, 45454.02, -181241.03, -104200.19, -168157.20, -33520.38, -187500.02, 0
115, -163697.08, -69708.96, 45450.39, -181243.31, -104202.17, -168158.53, -33536.87, -187500.02, 0
116, -163696.73, -69461.46, 45444.31, -181243.67, -104202.31, -168157.47, -33556.38, -187500.02, 0
117, -163699.08, -69539.60, 45443.09, -181242.98, -104201.37, -168155.66, -33572.99, -187500.02, 0
118, -163696.55, -69793.16, 45445.43, -181246.25, -104204.14, -168158.06, -33586.11, -187500.02, 0
119, -163694.88, -69757.96, 45444.63, -181249.47, -104207.02, -168160.42, -33601.09, -187500.02, 0
120, -163695.16, -69498.41, 45438.61, -181249.73, -104207.09, -168159.44, -33619.62, -187500.02, 0
121, -163694.16, -69485.76, 45436.38, -181248.92, -104205.98, -168157.27, -33636.89, -187500.02, 0
122, -163692.56, -69731.98, 45437.59, -181253.03, -104209.64, -168160.61, -33653.28, -187500.02, 0
123, -163690.16, -69775.48, 45436.58, -181258.20, -104214.38, -168164.94, -33669.73, -187500.02, 0
124, -163689.47, -69536.90, 45432.22, -181256.80, -104212.70, -168162.25, -33688.75, -187500.02, 0
125, -163689.73, -69462.88, 45427.17, -181255.97, -104211.79, -168160.11, -33708.46, -187500.02, 0
126, -163687.05, -69697.85, 45428.09, -181261.13, -104216.62, -168164.28, -33724.89, -187500.02, 0
127, -163684.52, -69798.02, 45429.45, -181266.14, -104221.13, -168168.58, -33740.70, -187500.02, 0
128, -163682.69, -69581.34, 45423.44, -181266.61, -104221.42, -168167.95, -33758.22, -187500.02, 0
129, -163684.50, -69450.20, 45416.98, -181265.52, -104220.19, -168165.47, -33776.59, -187500.02, 0
130, -163686.45, -69643.38, 45415.86, -181267.33, -104221.58, -168166.20, -33791.81, -187500.02, 0
131, -163682.80, -69808.05, 45416.89, -181272.02, -104225.78, -168170.20, -33806.52, -187500.02, 0
132, -163680.20, -69630.35, 45412.73, -181271.20, -104224.75, -168168.22, -33822.64, -187500.02, 0
133, -163683.70, -69441.64, 45406.41, -181271.50, -104224.86, -168167.09, -33840.14, -187500.02, 0
134, -163683.83, -69593.59, 45405.31, -181272.34, -104225.33, -168166.97, -33856.92, -187500.02, 0
135, -163678.72, -69810.71, 45407.21, -181274.92, -104227.48, -168168.75, -33872.37, -187500.02, 0
136, -163676.08, -69688.18, 45404.86, -181277.27, -104229.45, -168169.98, -33889.58, -187500.02, 0
137, -163675.50, -69453.17, 45398.47, -181274.70, -104226.78, -168166.06, -33909.05, -187500.02, 0
138, -163675.53, -69551.07, 45396.79, -181276.34, -104228.23, -168166.70, -33926.57, -187500.02, 0
139, -163669.91, -69787.13, 45400.71, -181283.14, -104234.54, -168172.66, -33942.15, -187500.02, 0
140, -163668.72, -69718.93, 45402.05, -181286.39, -104237.40, -168174.88, -33958.65, -187500.02, 0
141, -163671.33, -69464.95, 45398.05, -181282.50, -104233.47, -168169.63, -33977.82, -187500.02, 0
142, -163671.09, -69501.43, 45396.59, -181284.47, -104235.14, -168170.47, -33996.82, -187500.02, 0
143, -163667.77, -69748.03, 45399.10, -181289.47, -104239.75, -168174.67, -34012.69, -187500.02, 0
144, -163665.41, -69753.29, 45400.23, -181292.83, -104242.63, -168177.02, -34028.09, -187500.02, 0
145, -163664.58, -69506.75, 45394.52, -181292.25, -104241.88, -168175.23, -34045.95, -187500.02, 0
146, -163666.42, -69455.25, 45391.83, -181291.23, -104240.76, -168172.98, -34064.75, -187500.02, 0
147, -163666.00, -69698.66, 45393.75, -181295.47, -104244.42, -168176.36, -34081.22, -187500.02, 0
148, -163664.97, -69775.80, 45394.18, -181299.22, -104247.62, -168179.14, -34096.16, -187500.02, 0
149, -163665.66, -69547.80, 45388.70, -181297.67, -104245.83, -168176.36, -34112.56, -187500.02, 0
150, -163665.86, -69436.67, 45383.96, -181297.94, -104245.94, -168175.34, -34130.40, -187500.02, 0
151, -163661.75, -69660.02, 45386.18, -181299.78, -104247.51, -168176.27, -34147.34, -187500.02, 0
152, -163657.25, -69797.12, 45388.01, -181304.16, -104251.39, -168179.86, -34163.55, -187500.02, 0
153, -163657.30, -69591.41, 45383.65, -181305.97, -104253.00, -168180.55, -34182.14, -187500.02, 0
154, -163660.67, -69421.77, 45378.58, -181306.92, -104253.72, -168180.17, -34202.39, -187500.02, 0
155, -163658.47, -69605.01, 45378.58, -181308.16, -104254.55, -168180.36, -34219.07, -187500.02, 0
156, -163656.19, -69780.24, 45378.98, -181313.41, -104259.38, -168184.84, -34233.80, -187500.02, 0
157, -163654.53, -69638.63, 45375.07, -181313.19, -104258.79, -168183.38, -34251.32, -187500.02, 0
158, -163654.75, -69425.92, 45369.99, -181311.59, -104257.00, -168180.48, -34271.01, -187500.02, 0
159, -163652.97, -69546.18, 45368.07, -181314.17, -104259.35, -168182.00, -34290.08, -187500.02, 0
160, -163649.09, -69783.75, 45370.20, -181320.39, -104265.09, -168187.42, -34305.88, -187500.02, 0
161, -163646.22, -69690.91, 45367.89, -181322.02, -104266.39, -168188.09, -34323.32, -187500.02, 0
162, -163645.66, -69447.25, 45360.47, -181320.86, -104265.05, -168185.56, -34341.53, -187500.02, 0
163, -163646.75, -69507.28, 45360.45, -181323.36, -104267.35, -168186.88, -34358.12, -187500.02, 0
164, -163644.73, -69757.65, 45362.59, -181327.16, -104270.68, -168189.97, -34373.05, -187500.02, 0
165, -163644.53, -69727.72, 45362.51, -181329.39, -104272.60, -168191.23, -34388.47, -187500.02, 0
166, -163646.89, -69478.02, 45357.52, -181330.33, -104273.27, -168190.80, -34407.87, -187500.02, 0
167, -163647.78, -69467.81, 45354.91, -181329.80, -104272.45, -168189.03, -34426.56, -187500.02, 0
168, -163644.30, -69710.84, 45358.71, -181333.34, -104275.69, -168191.78, -34441.78, -187500.02, 0
169, -163639.70, -69755.63, 45360.11, -181334.36, -104276.34, -168191.89, -34457.65, -187500.02, 0
170, -163642.08, -69521.16, 45356.40, -181332.92, -104274.59, -168189.20, -34476.63, -187500.02, 0
171, -163644.95, -69447.36, 45354.10, -181332.91, -104274.28, -168187.84, -34495.60, -187500.02, 0
172, -163640.56, -69677.13, 45357.05, -181336.50, -104277.57, -168190.61, -34512.07, -187500.02, 0
173, -163635.81, -69778.66, 45360.16, -181339.56, -104280.30, -168192.78, -34527.54, -187500.02, 0
174, -163637.19, -69557.20, 45356.14, -181340.50, -104280.98, -168192.45, -34547.28, -187500.02, 0
175, -163640.27, -69428.34, 45352.00, -181343.97, -104284.18, -168194.69, -34567.06, -187500.02, 0
176, -163642.22, -69632.66, 45352.80, -181344.55, -104284.38, -168194.28, -34583.22, -187500.02, 0
177, -163639.19, -69796.29, 45354.44, -181344.22, -104283.60, -168193.14, -34600.25, -187500.02, 0
178, -163638.48, -69613.26, 45350.70, -181346.00, -104285.26, -168193.94, -34618.05, -187500.02, 0
179, -163637.63, -69422.10, 45345.83, -181346.20, -104285.23, -168192.77, -34637.29, -187500.02, 0
180, -163637.20, -69582.37, 45346.99, -181348.55, -104287.24, -168193.98, -34654.95, -187500.02, 0
181, -163634.17, -69778.81, 45349.96, -181352.91, -104291.09, -168197.44, -34669.45, -187500.02, 0
182, -163634.17, -69633.13, 45347.17, -181354.20, -104292.09, -168197.78, -34687.43, -187500.02, 0
183, -163635.86, -69407.28, 45343.51, -181354.50, -104292.19, -168196.69, -34708.39, -187500.02, 0
184, -163636.47, -69519.27, 45344.34, -181355.75, -104293.05, -168196.83, -34727.73, -187500.02, 0
185, -163630.39, -69753.09, 45346.01, -181358.86, -104295.83, -168199.17, -34745.92, -187500.02, 0
186, -163627.30, -69675.95, 45342.43, -181359.72, -104296.19, -168198.97, -34764.63, -187500.02, 0
187, -163628.05, -69428.67, 45338.14, -181359.19, -104295.38, -168197.00, -34785.44, -187500.02, 0
188, -163628.98, -69474.72, 45337.14, -181358.41, -104294.48, -168195.11, -34804.44, -187500.02, 0
189, -163628.52, -69726.42, 45339.26, -181363.36, -104299.18, -168199.42, -34820.42, -187500.02, 0
190, -163627.06, -69734.53, 45338.79, -181368.58, -104303.90, -168203.59, -34836.46, -187500.02, 0
191, -163625.52, -69485.05, 45332.58, -181368.67, -104303.65, -168202.28, -34853.68, -187500.02, 0
192, -163627.22, -69459.27, 45328.09, -181366.42, -104301.46, -168198.86, -34870.42, -187500.02, 0
193, -163627.70, -69709.75, 45329.05, -181369.31, -104303.90, -168200.88, -34885.51, -187500.02, 0
194, -163624.39, -69769.76, 45330.10, -181372.33, -104306.29, -168203.11, -34900.48, -187500.02, 0
195, -163623.13, -69518.04, 45325.74, -181374.45, -104308.13, -168203.95, -34919.44, -187500.02, 0
196, -163624.69, -69410.44, 45322.52, -181377.52, -104311.05, -168205.67, -34939.53, -187500.02, 0
197, -163622.55, -69625.26, 45325.71, -181378.19, -104311.52, -168205.52, -34957.79, -187500.02, 0
198, -163618.27, -69757.94, 45327.68, -181379.42, -104312.21, -168205.97, -34976.05, -187500.02, 0
199, -163618.45, -69546.91, 45322.21, -181382.75, -104315.23, -168208.09, -34995.16, -187500.02, 0
200, -163621.63, -69379.09, 45317.89, -181382.75, -104314.96, -168206.55, -35013.65, -187500.02, 0
201, -163619.81, -69558.88, 45320.26, -181385.89, -104317.82, -168208.69, -35031.60, -187500.02, 0
202, -163614.78, -69746.88, 45324.26, -181386.48, -104318.12, -168208.63, -35048.18, -187500.02, 0
203, -163614.23, -69594.30, 45321.47, -181389.25, -104320.57, -168210.30, -35065.19, -187500.02, 0
204, -163615.23, -69403.30, 45314.56, -181389.30, -104320.37, -168208.94, -35085.31, -187500.02, 0
205, -163616.33, -69530.62, 45313.11, -181389.72, -104320.46, -168208.30, -35104.96, -187500.02, 0
206, -163614.34, -69756.59, 45314.38, -181395.69, -104326.02, -168213.52, -35121.29, -187500.02, 0
207, -163611.56, -69663.37, 45311.48, -181399.42, -104329.36, -168216.25, -35138.50, -187500.02, 0
208, -163612.34, -69427.78, 45305.82, -181400.94, -104330.67, -168216.41, -35158.60, -187500.02, 0
209, -163611.83, -69485.85, 45304.44, -181401.80, -104331.39, -168216.09, -35178.23, -187500.02, 0
210, -163608.14, -69737.87, 45307.57, -181404.36, -104333.55, -168217.81, -35192.73, -187500.02, 0
211, -163606.03, -69716.36, 45306.96, -181405.17, -104333.91, -168217.59, -35207.84, -187500.02, 0
212, -163607.80, -69464.37, 45302.36, -181404.20, -104332.84, -168215.36, -35228.72, -187500.02, 0
213, -163608.89, -69461.24, 45298.96, -181404.11, -104332.58, -168214.06, -35250.36, -187500.02, 0
214, -163605.72, -69710.80, 45299.90, -181408.97, -104336.93, -168218.03, -35268.10, -187500.02, 0
215, -163602.72, -69754.56, 45299.92, -181412.66, -104340.22, -168220.81, -35284.60, -187500.02, 0
216, -163604.45, -69506.66, 45295.18, -181412.55, -104339.95, -168219.52, -35302.93, -187500.02, 0
217, -163606.36, -69428.23, 45290.96, -181412.98, -104340.20, -168218.70, -35323.89, -187500.02, 0
218, -163603.34, -69666.14, 45292.81, -181414.55, -104341.43, -168219.31, -35341.37, -187500.02, 0
219, -163599.81, -69767.99, 45294.89, -181417.06, -104343.64, -168220.98, -35357.91, -187500.02, 0
220, -163598.06, -69538.78, 45290.64, -181417.88, -104344.17, -168220.59, -35376.26, -187500.02, 0
221, -163597.23, -69400.06, 45286.40, -181416.75, -104342.84, -168218.13, -35395.51, -187500.02, 0
222, -163596.48, -69611.87, 45287.61, -181418.91, -104344.63, -168219.31, -35412.88, -187500.02, 0
223, -163592.03, -69772.13, 45291.07, -181424.88, -104350.10, -168224.41, -35429.26, -187500.02, 0
224, -163594.67, -69581.65, 45290.64, -181425.77, -104350.77, -168224.23, -35448.41, -187500.02, 0
225, -163597.22, -69396.73, 45289.17, -181426.67, -104351.55, -168223.81, -35471.12, -187500.02, 0
226, -163593.75, -69555.63, 45291.18, -181427.84, -104352.40, -168224.05, -35490.30, -187500.02, 0
227, -163588.97, -69757.36, 45292.59, -181431.31, -104355.35, -168226.64, -35506.97, -187500.02, 0
228, -163588.25, -69634.58, 45288.41, -181432.44, -104356.07, -168226.69, -35526.11, -187500.02, 0
229, -163591.55, -69408.24, 45282.58, -181431.81, -104355.30, -168224.63, -35548.62, -187500.02, 0
230, -163591.89, -69513.84, 45283.85, -181433.02, -104356.20, -168224.66, -35569.65, -187500.02, 0
231, -163588.52, -69765.05, 45288.30, -181437.75, -104360.49, -168228.64, -35586.34, -187500.02, 0
232, -163585.61, -69695.33, 45287.98, -181439.44, -104361.77, -168229.39, -35605.55, -187500.02, 0
233, -163587.09, -69437.46, 45282.58, -181437.44, -104359.55, -168225.97, -35627.70, -187500.02, 0
234, -163590.31, -69465.77, 45280.32, -181438.20, -104360.00, -168225.39, -35646.58, -187500.02, 0
235, -163585.48, -69717.03, 45284.07, -181441.20, -104362.66, -168227.63, -35661.63, -187500.02, 0
236, -163582.38, -69718.48, 45283.31, -181444.02, -104365.19, -168229.55, -35678.57, -187500.02, 0
237, -163582.05, -69479.32, 45277.66, -181444.17, -104365.14, -168228.44, -35697.32, -187500.02, 0
238, -163581.66, -69440.20, 45274.66, -181445.22, -104366.02, -168228.23, -35714.22, -187500.02, 0
239, -163578.52, -69679.35, 45278.55, -181448.48, -104368.94, -168230.69, -35730.49, -187500.02, 0
240, -163576.59, -69758.48, 45280.32, -181451.08, -104371.11, -168232.39, -35746.54, -187500.02, 0
241, -163577.25, -69522.17, 45276.59, -181451.03, -104370.84, -168231.00, -35765.61, -187500.02, 0
242, -163579.42, -69421.37, 45272.99, -181451.25, -104370.84, -168229.84, -35788.29, -187500.02, 0
243, -163576.88, -69645.66, 45274.53, -181453.78, -104372.79, -168231.30, -35806.60, -187500.02, 0
244, -163571.53, -69772.98, 45275.27, -181457.95, -104376.54, -168234.69, -35822.04, -187500.02, 0
245, -163571.00, -69555.30, 45270.57, -181457.88, -104376.25, -168233.45, -35836.91, -187500.02, 0
246, -163572.78, -69382.20, 45267.67, -181457.28, -104375.60, -168231.58, -35852.44, -187500.02, 0
247, -163572.23, -69575.39, 45269.99, -181459.53, -104377.48, -168232.72, -35869.59, -187500.02, 0
248, -163566.94, -69757.53, 45275.65, -181461.89, -104379.38, -168234.31, -35885.68, -187500.02, 0
249, -163565.55, -69591.23, 45273.08, -181462.83, -104380.01, -168234.13, -35904.25, -187500.02, 0
250, -163568.09, -69383.97, 45268.45, -181462.34, -104379.31, -168232.28, -35926.34, -187500.02, 0
251, -163567.06, -69522.33, 45270.26, -181464.11, -104380.72, -168232.97, -35946.95, -187500.02, 0
252, -163563.67, -69750.02, 45274.06, -181469.61, -104385.80, -168237.63, -35965.99, -187500.02, 0
253, -163560.72, -69646.45, 45271.89, -181470.75, -104386.55, -168237.64, -35985.39, -187500.02, 0
254, -163559.47, -69410.91, 45264.52, -181471.22, -104386.82, -168236.72, -36006.40, -187500.02, 0
255, -163558.92, -69482.92, 45261.07, -181471.77, -104387.20, -168236.25, -36025.91, -187500.02, 0
0, -163555.17, -69729.38, 45263.27, -181474.81, -104389.80, -168238.38, -36043.15, -187500.02, 0
1, -163554.81, -69691.41, 45261.72, -181477.14, -104391.67, -168239.78, -36061.88, -187500.02, 0
2, -163560.16, -69437.81, 45256.52, -181477.58, -104391.83, -168238.78, -36083.11, -187500.02, 0
3, -163561.83, -69445.62, 45255.96, -181478.44, -104392.50, -168238.31, -36103.34, -187500.02, 0
4, -163557.25, -69689.59, 45259.89, -181482.55, -104396.19, -168241.63, -36120.82, -187500.02, 0
5, -163555.33, -69712.72, 45260.79, -181484.98, -104398.40, -168243.41, -36138.01, -187500.02, 0
6, -163557.00, -69464.41, 45255.44, -181484.16, -104397.30, -168241.16, -36158.39, -187500.02, 0
7, -163557.20, -69411.46, 45251.64, -181482.39, -104395.20, -168238.02, -36180.14, -187500.02, 0
8, -163555.00, -69651.37, 45253.25, -181486.13, -104398.67, -168240.92, -36197.96, -187500.02, 0
9, -163552.25, -69744.01, 45254.48, -181488.09, -104400.23, -168242.14, -36214.72, -187500.02, 0
10, -163551.42, -69513.50, 45252.42, -181486.48, -104398.34, -168239.25, -36234.75, -187500.02, 0
11, -163550.80, -69388.26, 45250.41, -181485.98, -104397.59, -168237.33, -36257.03, -187500.02, 0
12, -163548.06, -69597.14, 45252.27, -181489.88, -104401.13, -168240.17, -36276.07, -187500.02, 0
13, -163545.08, -69743.16, 45252.76, -181495.20, -104406.05, -168244.80, -36292.14, -187500.02, 0
14, -163546.55, -69550.05, 45248.69, -181495.58, -104406.25, -168244.03, -36310.72, -187500.02, 0
15, -163545.50, -69370.54, 45242.90, -181494.84, -104405.27, -168241.84, -36330.68, -187500.02, 0
16, -163543.81, -69525.77, 45243.77, -181497.48, -104407.68, -168243.50, -36347.31, -187500.02, 0
17, -163541.97, -69736.44, 45246.93, -181500.78, -104410.52, -168245.95, -36362.13, -187500.02, 0
18, -163542.25, -69609.99, 45245.00, -181504.58, -104413.98, -168248.66, -36379.83, -187500.02, 0
19, -163542.50, -69382.63, 45240.36, -181503.64, -104412.95, -168246.41, -36400.51, -187500.02, 0
20, -163540.09, -69488.27, 45239.93, -181505.08, -104414.05, -168246.64, -36418.72, -187500.02, 0
21, -163536.44, -69725.68, 45242.01, -181509.50, -104417.98, -168250.25, -36432.16, -187500.02, 0
22, -163536.84, -69657.42, 45240.69, -181511.52, -104419.57, -168251.25, -36448.79, -187500.02, 0
23, -163538.86, -69411.82, 45236.29, -181511.14, -104419.01, -168249.55, -36470.65, -187500.02, 0
24, -163539.48, -69452.59, 45235.21, -181512.00, -104419.61, -168249.13, -36493.38, -187500.02, 0
25, -163537.89, -69703.66, 45240.04, -181516.25, -104423.48, -168252.58, -36512.07, -187500.02, 0
26, -163535.89, -69695.60, 45241.79, -181517.48, -104424.40, -168252.92, -36530.39, -187500.02, 0
27, -163536.02, -69446.89, 45236.00, -181517.53, -104424.20, -168251.66, -36551.61, -187500.02, 0
28, -163534.61, -69422.02, 45232.71, -181517.44, -104423.86, -168250.22, -36572.39, -187500.02, 0
29, -163530.81, -69659.50, 45235.73, -181521.13, -104427.15, -168252.97, -36589.54, -187500.02, 0
30, -163528.36, -69729.26, 45236.38, -181524.14, -104429.72, -168255.17, -36606.50, -187500.02, 0
31, -163528.02, -69501.56, 45232.60, -181522.64, -104427.99, -168252.28, -36626.04, -187500.02, 0
32, -163531.45, -69408.36, 45228.69, -181522.89, -104428.04, -168251.19, -36645.17, -187500.02, 0
33, -163531.55, -69629.80, 45230.83, -181523.58, -104428.42, -168250.89, -36663.92, -187500.02, 0
34, -163529.64, -69753.78, 45231.93, -181526.02, -104430.45, -168252.59, -36682.92, -187500.02, 0
35, -163529.36, -69533.37, 45228.44, -181526.84, -104430.97, -168252.17, -36705.56, -187500.02, 0
36, -163531.30, -69368.62, 45226.47, -181527.25, -104431.13, -168251.28, -36728.83, -187500.02, 0
37, -163529.42, -69562.52, 45230.03, -181530.63, -104434.16, -168253.58, -36747.92, -187500.02, 0
38, -163524.19, -69745.76, 45235.86, -181535.09, -104438.05, -168257.27, -36766.07, -187500.02, 0
39, -163521.13, -69574.85, 45232.20, -181533.28, -104436.11, -168254.42, -36787.33, -187500.02, 0
40, -163523.81, -69372.81, 45224.66, -181533.98, -104436.76, -168253.83, -36810.44, -187500.02, 0
41, -163525.72, -69513.07, 45224.60, -181535.97, -104438.32, -168254.61, -36830.13, -187500.02, 0
42, -163520.11, -69737.75, 45228.60, -181541.48, -104443.30, -168259.25, -36848.75, -187500.02, 0
43, -163516.61, -69629.33, 45227.46, -181543.86, -104445.41, -168260.66, -36869.96, -187500.02, 0
44, -163518.25, -69399.95, 45221.55, -181544.23, -104445.74, -168259.66, -36893.43, -187500.02, 0
45, -163518.42, -69474.96, 45220.71, -181544.53, -104445.81, -168258.77, -36913.55, -187500.02, 0
46, -163515.44, -69724.56, 45225.40, -181547.33, -104447.98, -168260.70, -36929.91, -187500.02, 0
47, -163512.75, -69676.53, 45223.90, -181550.05, -104450.19, -168262.41, -36946.40, -187500.02, 0
48, -163515.75, -69425.50, 45219.14, -181547.80, -104447.80, -168258.83, -36967.23, -187500.02, 0
49, -163516.13, -69428.67, 45218.65, -181548.97, -104448.83, -168258.83, -36989.48, -187500.02, 0
50, -163512.19, -69676.40, 45222.85, -181552.11, -104451.51, -168261.11, -37010.22, -187500.02, 0
51, -163509.95, -69707.47, 45224.13, -181556.02, -104455.17, -168264.17, -37029.71, -187500.02, 0
52, -163510.47, -69462.89, 45218.25, -181558.00, -104456.90, -168264.91, -37050.36, -187500.02, 0
53, -163511.59, -69400.22, 45214.20, -181558.91, -104457.63, -168264.58, -37071.24, -187500.02, 0
54, -163505.91, -69640.50, 45216.77, -181561.25, -104459.58, -168265.92, -37088.27, -187500.02, 0
55, -163504.02, -69731.80, 45218.54, -181564.67, -104462.57, -168268.47, -37107.45, -187500.02, 0
56, -163506.09, -69500.47, 45214.52, -181564.08, -104461.70, -168266.63, -37130.43, -187500.02, 0
57, -163508.17, -69372.68, 45209.51, -181564.53, -104461.99, -168265.61, -37152.44, -187500.02, 0
58, -163506.16, -69580.55, 45212.64, -181567.14, -104464.16, -168267.22, -37170.04, -187500.02, 0
59, -163501.17, -69737.93, 45216.37, -181571.73, -104468.30, -168271.02, -37186.26, -187500.02, 0
60, -163499.58, -69562.88, 45214.96, -181573.58, -104469.99, -168271.77, -37206.13, -187500.02, 0
61, -163501.58, -69378.18, 45210.78, -181572.63, -104468.74, -168269.33, -37229.49, -187500.02, 0
62, -163502.27, -69547.72, 45211.61, -181573.41, -104469.28, -168269.14, -37251.17, -187500.02, 0
63, -163498.13, -69750.20, 45216.64, -181576.45, -104471.87, -168271.34, -37268.31, -187500.02, 0
64, -163497.58, -69600.96, 45215.05, -181578.08, -104473.08, -168271.75, -37288.54, -187500.02, 0
65, -163498.80, -69390.23, 45211.61, -181577.09, -104471.91, -168269.36, -37311.99, -187500.02, 0
66, -163500.30, -69490.54, 45211.68, -181577.30, -104471.87, -168268.53, -37331.91, -187500.02, 0
67, -163494.98, -69708.25, 45215.54, -181583.64, -104477.75, -168274.14, -37350.23, -187500.02, 0
68, -163492.97, -69627.49, 45214.38, -181586.84, -104480.48, -168276.23, -37371.18, -187500.02, 0
69, -163494.78, -69386.00, 45208.73, -181583.38, -104476.84, -168271.41, -37393.11, -187500.02, 0
70, -163495.16, -69439.02, 45208.52, -181582.81, -104476.05, -168269.63, -37412.57, -187500.02, 0
71, -163490.67, -69687.98, 45212.95, -181587.63, -104480.45, -168273.56, -37431.17, -187500.02, 0
72, -163487.16, -69676.51, 45214.34, -181589.19, -104481.55, -168274.23, -37451.62, -187500.02, 0
73, -163487.78, -69427.27, 45210.18, -181586.95, -104479.20, -168270.81, -37474.20, -187500.02, 0
74, -163488.05, -69399.33, 45208.26, -181587.89, -104479.96, -168270.36, -37495.39, -187500.02, 0
75, -163485.73, -69653.69, 45210.98, -181590.91, -104482.60, -168272.47, -37514.09, -187500.02, 0
76, -163482.22, -69707.96, 45211.30, -181594.34, -104485.59, -168274.98, -37532.64, -187500.02, 0
77, -163482.23, -69467.45, 45207.23, -181594.75, -104485.75, -168274.19, -37552.79, -187500.02, 0
78, -163483.88, -69379.59, 45202.51, -181597.33, -104488.03, -168275.38, -37574.11, -187500.02, 0
79, -163482.47, -69607.17, 45204.64, -181601.55, -104491.83, -168278.61, -37593.62, -187500.02, 0
80, -163479.72, -69741.38, 45207.21, -181605.09, -104494.98, -168281.50, -37613.00, -187500.02, 0
81, -163480.30, -69524.30, 45202.13, -181606.52, -104496.10, -168281.55, -37632.89, -187500.02, 0
82, -163482.47, -69363.80, 45195.76, -181608.19, -104497.51, -168281.78, -37653.79, -187500.02, 0
83, -163480.59, -69550.20, 45197.15, -181609.64, -104498.72, -168282.34, -37674.45, -187500.02, 0
84, -163475.89, -69720.88, 45200.21, -181612.45, -104501.24, -168284.44, -37694.00, -187500.02, 0
85, -163476.56, -69551.72, 45197.15, -181615.88, -104504.20, -168286.53, -37714.32, -187500.02, 0
86, -163478.55, -69344.23, 45192.57, -181614.20, -104502.43, -168283.42, -37735.55, -187500.02, 0
87, -163475.69, -69490.61, 45194.64, -181615.27, -104503.12, -168283.50, -37754.57, -187500.02, 0
88, -163474.69, -69716.07, 45198.31, -181618.84, -104506.27, -168286.30, -37770.85, -187500.02, 0
89, -163475.06, -69604.96, 45195.85, -181619.50, -104506.70, -168285.98, -37789.47, -187500.02, 0
90, -163477.59, -69371.59, 45188.36, -181618.89, -104505.89, -168284.05, -37812.24, -187500.02, 0
91, -163477.55, -69476.15, 45183.13, -181621.47, -104508.20, -168285.47, -37837.64, -187500.02, 0
92, -163471.63, -69726.27, 45184.52, -181624.88, -104511.14, -168287.89, -37857.28, -187500.02, 0
93, -163468.09, -69665.29, 45183.51, -181626.78, -104512.62, -168288.78, -37875.66, -187500.02, 0
94, -163469.80, -69401.70, 45177.34, -181626.31, -104511.97, -168286.97, -37896.75, -187500.02, 0
95, -163469.86, -69414.59, 45175.11, -181629.05, -104514.52, -168288.56, -37917.48, -187500.02, 0
96, -163468.47, -69648.30, 45179.85, -181632.55, -104517.52, -168291.13, -37936.88, -187500.02, 0
97, -163467.38, -69671.57, 45181.41, -181632.58, -104517.13, -168290.23, -37955.77, -187500.02, 0
98, -163468.41, -69431.80, 45177.03, -181632.17, -104516.46, -168288.56, -37977.20, -187500.02, 0
99, -163467.08, -69375.09, 45173.95, -181632.77, -104516.95, -168287.94, -37998.77, -187500.02, 0
100, -163462.91, -69620.72, 45177.57, -181636.23, -104519.93, -168290.39, -38017.54, -187500.02, 0
101, -163460.31, -69706.21, 45179.60, -181638.86, -104522.09, -168292.06, -38037.10, -187500.02, 0
102, -163461.56, -69470.43, 45174.13, -181640.59, -104523.73, -168292.63, -38059.52, -187500.02, 0
103, -163461.86, -69349.28, 45169.32, -181639.19, -104522.25, -168289.97, -38082.36, -187500.02, 0
104, -163460.81, -69562.83, 45169.95, -181643.48, -104526.07, -168293.30, -38100.83, -187500.02, 0
105, -163457.86, -69701.86, 45171.15, -181646.41, -104528.53, -168295.38, -38117.90, -187500.02, 0
106, -163455.94, -69513.12, 45168.87, -181649.58, -104531.48, -168297.39, -38137.93, -187500.02, 0
107, -163456.63, -69340.54, 45166.93, -181649.67, -104531.55, -168296.14, -38160.66, -187500.02, 0
108, -163455.11, -69514.68, 45169.70, -181649.11, -104530.63, -168294.58, -38181.83, -187500.02, 0
109, -163451.80, -69723.63, 45174.37, -181652.42, -104533.34, -168297.05, -38200.29, -187500.02, 0
110, -163449.00, -69567.92, 45170.41, -181654.61, -104535.22, -168298.11, -38219.54, -187500.02, 0
111, -163451.47, -69337.88, 45164.29, -181654.03, -104534.59, -168296.25, -38239.65, -187500.02, 0
112, -163452.25, -69453.53, 45164.92, -181654.97, -104535.10, -168295.94, -38260.62, -187500.02, 0
113, -163451.06, -69704.47, 45170.15, -181658.25, -104537.98, -168298.44, -38279.44, -187500.02, 0
114, -163449.56, -69624.70, 45168.76, -181661.27, -104540.58, -168300.41, -38298.82, -187500.02, 0
115, -163450.30, -69363.70, 45164.56, -181661.45, -104540.52, -168299.06, -38321.42, -187500.02, 0
116, -163450.61, -69412.80, 45161.65, -181661.98, -104540.91, -168298.50, -38343.32, -187500.02, 0
117, -163447.13, -69669.71, 45165.18, -181666.75, -104545.27, -168302.50, -38363.24, -187500.02, 0
118, -163444.20, -69645.04, 45166.91, -181667.97, -104546.05, -168302.75, -38383.46, -187500.02, 0
119, -163446.25, -69403.20, 45162.28, -181668.41, -104546.34, -168301.77, -38405.53, -187500.02, 0
120, -163446.59, -69377.16, 45159.55, -181668.27, -104546.05, -168300.45, -38425.20, -187500.02, 0
121, -163443.70, -69626.51, 45163.66, -181670.75, -104548.07, -168302.06, -38444.46, -187500.02, 0
122, -163442.91, -69678.63, 45167.93, -181676.06, -104552.90, -168306.39, -38465.18, -187500.02, 0
123, -163444.53, -69425.39, 45164.25, -181677.30, -104553.84, -168306.31, -38486.26, -187500.02, 0
124, -163445.36, -69332.16, 45159.42, -181676.98, -104553.27, -168304.63, -38508.34, -187500.02, 0
125, -163442.23, -69574.07, 45161.54, -181680.47, -104556.38, -168307.20, -38529.20, -187500.02, 0
126, -163437.33, -69695.44, 45162.57, -181685.08, -104560.63, -168311.11, -38548.13, -187500.02, 0
127, -163437.92, -69468.02, 45156.91, -181684.34, -104559.69, -168309.09, -38569.25, -187500.02, 0
128, -163439.23, -69320.96, 45152.80, -181681.67, -104556.72, -168304.92, -38593.50, -187500.02, 0
129, -163437.77, -69532.09, 45156.07, -181683.20, -104557.97, -168305.45, -38615.90, -187500.02, 0
130, -163432.50, -69717.32, 45159.38, -181686.84, -104561.16, -168308.31, -38636.91, -187500.02, 0
131, -163431.45, -69541.15, 45156.20, -181688.42, -104562.46, -168308.67, -38659.35, -187500.02, 0
132, -163432.95, -69331.73, 45149.88, -181687.88, -104561.70, -168306.64, -38682.98, -187500.02, 0
133, -163431.61, -69477.53, 45149.70, -181690.13, -104563.58, -168307.88, -38704.01, -187500.02, 0
134, -163429.69, -69695.60, 45154.12, -181695.88, -104568.97, -168312.86, -38723.03, -187500.02, 0
135, -163430.16, -69564.70, 45153.61, -181694.95, -104567.70, -168310.84, -38744.16, -187500.02, 0
136, -163430.09, -69322.21, 45147.19, -181694.19, -104566.71, -168308.67, -38767.87, -187500.02, 0
137, -163427.52, -69421.25, 45144.84, -181695.41, -104567.70, -168308.67, -38789.57, -187500.02, 0
138, -163426.05, -69680.06, 45148.76, -181699.27, -104571.11, -168311.78, -38810.20, -187500.02, 0
139, -163423.92, -69623.60, 45150.61, -181701.55, -104572.90, -168313.08, -38829.94, -187500.02, 0
140, -163426.56, -69356.43, 45145.00, -181701.11, -104572.32, -168311.30, -38851.76, -187500.02, 0
141, -163427.44, -69373.20, 45141.11, -181703.56, -104574.51, -168312.45, -38875.85, -187500.02, 0
142, -163423.70, -69647.20, 45142.57, -181708.52, -104579.05, -168316.52, -38895.48, -187500.02, 0
143, -163420.13, -69690.41, 45143.32, -181711.72, -104581.98, -168319.00, -38915.10, -187500.02, 0
144, -163421.78, -69426.77, 45141.11, -181708.64, -104578.66, -168314.39, -38938.41, -187500.02, 0
145, -163423.34, -69365.98, 45138.65, -181708.66, -104578.51, -168313.14, -38964.16, -187500.02, 0
146, -163420.80, -69612.90, 45140.20, -181710.78, -104580.27, -168314.47, -38984.14, -187500.02, 0
147, -163418.83, -69684.38, 45139.37, -181715.00, -104584.05, -168317.69, -39002.65, -187500.02, 0
148, -163420.42, -69453.77, 45133.40, -181715.45, -104584.21, -168316.88, -39024.82, -187500.02, 0
149, -163423.48, -69341.61, 45125.87, -181714.45, -104582.96, -168314.59, -39047.40, -187500.02, 0
150, -163419.97, -69557.15, 45125.31, -181716.84, -104585.02, -168315.97, -39069.21, -187500.02, 0
151, -163416.69, -69702.86, 45127.59, -181720.59, -104588.34, -168318.94, -39087.52, -187500.02, 0
152, -163416.59, -69499.93, 45124.39, -181721.58, -104589.02, -168318.67, -39106.30, -187500.02, 0
153, -163418.73, -69322.28, 45118.63, -181721.55, -104588.84, -168317.19, -39129.21, -187500.02, 0
154, -163418.34, -69507.91, 45120.73, -181724.06, -104591.09, -168318.78, -39149.95, -187500.02, 0
155, -163416.14, -69712.20, 45124.08, -181728.64, -104595.07, -168322.52, -39167.39, -187500.02, 0
156, -163413.73, -69553.95, 45121.09, -181731.44, -104597.42, -168324.08, -39188.26, -187500.02, 0
157, -163414.02, -69321.61, 45117.84, -181730.92, -104596.84, -168322.17, -39209.45, -187500.02, 0
158, -163412.48, -69455.63, 45121.02, -181732.38, -104598.02, -168322.53, -39228.34, -187500.02, 0
159, -163407.94, -69701.03, 45125.67, -181736.50, -104601.73, -168326.00, -39246.44, -187500.02, 0
160, -163405.42, -69602.21, 45121.53, -181737.02, -104601.91, -168325.44, -39265.89, -187500.02, 0
161, -163407.42, -69345.03, 45114.80, -181736.34, -104600.98, -168323.30, -39289.27, -187500.02, 0
162, -163407.56, -69408.49, 45112.59, -181738.72, -104603.08, -168324.39, -39311.00, -187500.02, 0
163, -163404.08, -69665.91, 45115.68, -181741.64, -104605.60, -168326.44, -39330.20, -187500.02, 0
164, -163400.61, -69647.45, 45116.32, -181743.89, -104607.34, -168327.77, -39351.38, -187500.02, 0
165, -163401.50, -69385.00, 45111.79, -181744.31, -104607.68, -168326.89, -39375.26, -187500.02, 0
166, -163403.27, -69356.88, 45111.41, -181744.52, -104607.70, -168325.81, -39400.60, -187500.02, 0
167, -163401.81, -69603.11, 45116.21, -181748.20, -104610.95, -168328.67, -39422.26, -187500.02, 0
168, -163396.28, -69648.05, 45116.55, -181751.02, -104613.40, -168330.69, -39441.53, -187500.02, 0
169, -163394.94, -69410.52, 45112.46, -181750.30, -104612.44, -168328.72, -39461.80, -187500.02, 0
170, -163397.59, -69335.53, 45110.69, -181749.83, -104611.79, -168326.69, -39483.24, -187500.02, 0
171, -163397.70, -69580.40, 45113.04, -181754.13, -104615.59, -168330.00, -39502.55, -187500.02, 0
172, -163397.08, -69701.97, 45114.20, -181756.28, -104617.23, -168331.30, -39520.95, -187500.02, 0
173, -163395.98, -69468.39, 45110.94, -181756.17, -104616.89, -168329.95, -39542.34, -187500.02, 0
174, -163396.30, -69318.84, 45107.59, -181756.36, -104616.87, -168328.80, -39565.92, -187500.02, 0
175, -163394.31, -69523.22, 45110.22, -181759.66, -104619.93, -168331.19, -39588.76, -187500.02, 0
176, -163392.50, -69693.85, 45114.38, -181764.14, -104623.95, -168334.84, -39607.80, -187500.02, 0
177, -163391.11, -69492.73, 45113.24, -181764.22, -104623.80, -168333.78, -39628.48, -187500.02, 0
178, -163390.70, -69299.95, 45110.31, -181762.17, -104621.45, -168330.28, -39651.93, -187500.02, 0
179, -163386.83, -69463.50, 45110.31, -181765.03, -104624.09, -168332.02, -39673.07, -187500.02, 0
180, -163385.08, -69669.60, 45112.77, -181769.16, -104627.82, -168335.34, -39691.87, -187500.02, 0
181, -163385.38, -69538.76, 45108.97, -181771.58, -104629.72, -168336.56, -39713.28, -187500.02, 0
182, -163387.69, -69325.19, 45102.78, -181770.53, -104628.49, -168334.16, -39736.89, -187500.02, 0
183, -163387.47, -69444.32, 45102.49, -181771.73, -104629.54, -168334.27, -39759.10, -187500.02, 0
184, -163382.38, -69679.37, 45105.53, -181775.41, -104632.73, -168337.22, -39779.82, -187500.02, 0
185, -163379.38, -69609.30, 45104.23, -181778.19, -104635.13, -168339.00, -39799.89, -187500.02, 0
186, -163382.28, -69353.98, 45097.84, -181779.06, -104635.69, -168338.41, -39822.22, -187500.02, 0
187, -163381.61, -69371.23, 45093.82, -181778.58, -104634.93, -168336.56, -39843.70, -187500.02, 0
188, -163377.02, -69636.01, 45097.19, -181782.97, -104638.88, -168340.13, -39862.08, -187500.02, 0
189, -163374.17, -69659.39, 45096.99, -181786.23, -104641.74, -168342.41, -39880.94, -187500.02, 0
190, -163376.58, -69395.37, 45090.26, -181786.80, -104641.99, -168341.55, -39901.71, -187500.02, 0
191, -163379.09, -69339.83, 45086.80, -181786.89, -104641.90, -168340.28, -39921.53, -187500.02, 0
192, -163377.59, -69598.70, 45088.52, -181788.86, -104643.47, -168341.47, -39940.13, -187500.02, 0
193, -163375.75, -69677.29, 45089.90, -181792.39, -104646.59, -168344.08, -39960.71, -187500.02, 0
194, -163377.72, -69424.29, 45085.46, -181792.08, -104645.99, -168342.42, -39984.34, -187500.02, 0
195, -163378.66, -69314.12, 45081.70, -181790.28, -104644.13, -168339.36, -40008.41, -187500.02, 0
196, -163376.19, -69548.84, 45084.45, -181794.23, -104647.66, -168342.30, -40029.34, -187500.02, 0
197, -163372.30, -69692.24, 45087.49, -181799.50, -104652.49, -168346.77, -40049.96, -187500.02, 0
198, -163370.53, -69467.07, 45084.90, -181800.52, -104653.23, -168346.50, -40073.91, -187500.02, 0
199, -163371.94, -69297.60, 45081.48, -181799.69, -104652.25, -168344.33, -40099.23, -187500.02, 0
200, -163367.59, -69479.21, 45081.99, -181802.59, -104654.87, -168346.19, -40121.09, -187500.02, 0
201, -163364.36, -69687.35, 45083.82, -181808.30, -104660.07, -168351.02, -40141.16, -187500.02, 0
202, -163365.88, -69526.15, 45080.38, -181808.03, -104659.34, -168349.53, -40162.91, -187500.02, 0
203, -163367.80, -69316.98, 45073.63, -181805.73, -104656.92, -168345.83, -40186.29, -187500.02, 0
204, -163367.53, -69446.13, 45073.10, -181806.11, -104656.92, -168344.92, -40208.77, -187500.02, 0
205, -163364.14, -69661.11, 45078.84, -181809.84, -104660.23, -168347.88, -40228.58, -187500.02, 0
206, -163360.56, -69554.76, 45078.55, -181810.27, -104660.45, -168347.36, -40249.16, -187500.02, 0
207, -163361.41, -69322.16, 45072.38, -181811.47, -104661.52, -168347.33, -40270.89, -187500.02, 0
208, -163362.55, -69394.92, 45072.47, -181814.83, -104664.59, -168349.41, -40292.41, -187500.02, 0
209, -163357.66, -69647.25, 45077.75, -181818.22, -104667.43, -168351.83, -40312.64, -187500.02, 0
210, -163354.28, -69601.56, 45077.48, -181819.75, -104668.61, -168352.53, -40335.44, -187500.02, 0
211, -163356.25, -69336.38, 45071.38, -181819.83, -104668.55, -168351.30, -40359.29, -187500.02, 0
212, -163357.97, -69333.30, 45068.65, -181818.30, -104666.87, -168348.38, -40379.52, -187500.02, 0
213, -163353.22, -69583.33, 45072.38, -181821.69, -104669.80, -168350.86, -40398.74, -187500.02, 0
214, -163347.92, -69620.41, 45074.08, -181824.17, -104671.83, -168352.63, -40417.21, -187500.02, 0
215, -163349.47, -69369.17, 45069.59, -181824.80, -104672.23, -168351.86, -40438.30, -187500.02, 0
216, -163352.80, -69302.88, 45066.30, -181825.31, -104672.52, -168350.92, -40460.19, -187500.02, 0
217, -163351.27, -69539.43, 45068.38, -181827.33, -104674.16, -168352.13, -40479.52, -187500.02, 0
218, -163346.88, -69646.83, 45069.41, -181832.91, -104679.30, -168356.86, -40498.88, -187500.02, 0
219, -163345.84, -69415.82, 45064.65, -181834.59, -104680.73, -168357.14, -40520.40, -187500.02, 0
220, -163349.36, -69271.36, 45061.14, -181834.83, -104680.88, -168356.03, -40543.74, -187500.02, 0
221, -163349.72, -69474.34, 45062.03, -181835.95, -104681.59, -168356.17, -40564.86, -187500.02, 0
222, -163349.20, -69648.23, 45063.82, -181838.78, -104683.84, -168358.11, -40585.71, -187500.02, 0
223, -163349.27, -69472.21, 45061.88, -181839.80, -104684.66, -168357.98, -40608.74, -187500.02, 0
224, -163349.50, -69277.80, 45058.01, -181838.23, -104682.98, -168354.97, -40631.78, -187500.02, 0
225, -163347.42, -69429.23, 45059.30, -181841.42, -104685.87, -168357.17, -40653.04, -187500.02, 0
226, -163342.77, -69648.13, 45062.30, -181846.39, -104690.36, -168361.31, -40673.47, -187500.02, 0
227, -163337.69, -69525.68, 45060.24, -181848.13, -104691.84, -168361.98, -40696.07, -187500.02, 0
228, -163339.38, -69299.05, 45053.31, -181848.44, -104691.88, -168360.80, -40718.33, -187500.02, 0
229, -163341.05, -69395.19, 45052.49, -181851.19, -104694.30, -168362.30, -40740.01, -187500.02, 0
230, -163336.03, -69639.70, 45059.08, -181854.88, -104697.55, -168365.20, -40760.21, -187500.02, 0
231, -163333.89, -69564.20, 45059.68, -181857.45, -104699.79, -168366.77, -40782.70, -187500.02, 0
232, -163335.23, -69308.66, 45053.16, -181854.97, -104697.27, -168362.97, -40808.18, -187500.02, 0
233, -163334.94, -69343.00, 45050.07, -181852.69, -104694.70, -168359.45, -40830.89, -187500.02, 0
234, -163333.48, -69593.18, 45053.31, -181857.50, -104698.95, -168363.38, -40852.19, -187500.02, 0
235, -163331.77, -69599.33, 45053.11, -181859.42, -104700.40, -168364.31, -40875.24, -187500.02, 0
236, -163332.39, -69344.99, 45046.83, -181862.91, -104703.63, -168366.31, -40900.16, -187500.02, 0
237, -163333.48, -69302.43, 45042.32, -181863.39, -104703.91, -168365.45, -40923.90, -187500.02, 0
238, -163330.78, -69549.73, 45044.48, -181863.70, -104703.77, -168364.80, -40943.81, -187500.02, 0
239, -163327.61, -69629.34, 45046.54, -181866.06, -104705.83, -168366.34, -40962.52, -187500.02, 0
240, -163326.19, -69392.80, 45041.76, -181866.91, -104706.41, -168365.94, -40985.97, -187500.02, 0
241, -163325.36, -69286.41, 45037.27, -181867.33, -104706.77, -168365.11, -41011.63, -187500.02, 0
242, -163325.22, -69509.84, 45039.34, -181869.97, -104708.98, -168366.67, -41032.68, -187500.02, 0
243, -163322.16, -69650.47, 45042.18, -181871.72, -104710.14, -168367.55, -41052.31, -187500.02, 0
244, -163320.59, -69447.96, 45038.34, -181874.66, -104712.76, -168369.22, -41074.55, -187500.02, 0
245, -163321.08, -69288.80, 45033.89, -181873.52, -104711.55, -168366.77, -41098.42, -187500.02, 0
246, -163319.97, -69479.99, 45036.86, -181875.06, -104712.84, -168367.28, -41119.45, -187500.02, 0
247, -163316.13, -69669.02, 45041.80, -181881.81, -104719.13, -168373.20, -41140.30, -187500.02, 0
248, -163315.72, -69488.87, 45040.80, -181881.06, -104718.08, -168371.19, -41163.13, -187500.02, 0
249, -163316.91, -69287.97, 45034.65, -181877.59, -104714.34, -168366.34, -41187.78, -187500.02, 0
250, -163317.98, -69421.90, 45035.25, -181880.19, -104716.63, -168367.84, -41210.78, -187500.02, 0
251, -163318.72, -69645.59, 45039.97, -181885.17, -104721.23, -168372.06, -41230.63, -187500.02, 0
252, -163316.17, -69557.82, 45039.19, -181889.19, -104724.80, -168374.92, -41251.95, -187500.02, 0
253, -163314.56, -69326.15, 45035.39, -181889.06, -104724.53, -168373.38, -41276.54, -187500.02, 0
254, -163314.64, -69396.51, 45036.48, -181888.47, -104723.66, -168371.53, -41300.52, -187500.02, 0
255, -163312.25, -69643.05, 45040.30, -181892.91, -104727.64, -168375.11, -41320.89, -187500.02, 0
0, -163309.94, -69606.95, 45039.52, -181896.39, -104730.81, -168377.73, -41340.87, -187500.02, 0
1, -163308.59, -69341.97, 45034.47, -181896.50, -104730.81, -168376.52, -41365.84, -187500.02, 0
2, -163308.19, -69335.87, 45033.62, -181895.97, -104729.95, -168374.66, -41391.85, -187500.02, 0
3, -163304.09, -69585.59, 45036.55, -181901.86, -104735.40, -168379.66, -41414.34, -187500.02, 0
4, -163302.53, -69632.43, 45038.16, -181906.22, -104739.40, -168383.13, -41433.83, -187500.02, 0
5, -163305.45, -69386.79, 45034.32, -181903.36, -104736.29, -168378.84, -41455.80, -187500.02, 0
6, -163304.92, -69312.82, 45031.41, -181902.94, -104735.71, -168377.00, -41479.56, -187500.02, 0
7, -163303.69, -69552.01, 45035.77, -181906.16, -104738.44, -168379.31, -41502.52, -187500.02, 0
8, -163301.08, -69649.20, 45038.23, -181909.47, -104741.27, -168381.81, -41524.22, -187500.02, 0
9, -163299.45, -69424.56, 45034.76, -181909.36, -104740.92, -168380.52, -41547.40, -187500.02, 0
10, -163298.91, -69274.85, 45030.18, -181910.77, -104742.26, -168380.58, -41572.90, -187500.02, 0
11, -163296.20, -69493.31, 45032.26, -181913.78, -104744.85, -168382.59, -41595.50, -187500.02, 0
12, -163295.17, -69669.60, 45034.83, -181916.97, -104747.47, -168384.73, -41616.36, -187500.02, 0
13, -163297.61, -69464.21, 45030.85, -181916.69, -104746.95, -168383.27, -41637.77, -187500.02, 0
14, -163301.59, -69277.15, 45025.75, -181916.11, -104746.22, -168381.25, -41663.29, -187500.02, 0
15, -163297.56, -69437.34, 45027.86, -181917.80, -104747.55, -168381.86, -41686.72, -187500.02, 0
16, -163294.59, -69643.25, 45032.37, -181923.17, -104752.50, -168386.44, -41708.04, -187500.02, 0
17, -163295.80, -69526.53, 45031.86, -181922.66, -104751.67, -168384.88, -41728.52, -187500.02, 0
18, -163299.50, -69292.10, 45028.32, -181923.28, -104752.09, -168384.05, -41751.27, -187500.02, 0
19, -163297.02, -69378.54, 45026.87, -181924.91, -104753.44, -168384.45, -41774.49, -187500.02, 0
20, -163291.92, -69621.50, 45028.97, -181928.94, -104757.05, -168387.58, -41796.35, -187500.02, 0
21, -163289.14, -69545.77, 45028.39, -181930.23, -104757.95, -168387.80, -41816.76, -187500.02, 0
22, -163289.88, -69290.00, 45024.48, -181929.94, -104757.52, -168386.17, -41839.56, -187500.02, 0
23, -163291.98, -69331.11, 45025.33, -181930.52, -104757.80, -168385.34, -41864.17, -187500.02, 0
24, -163287.52, -69594.88, 45029.71, -181933.00, -104759.78, -168387.00, -41885.29, -187500.02, 0
25, -163285.36, -69593.80, 45028.59, -181935.64, -104762.02, -168388.67, -41906.08, -187500.02, 0
26, -163288.70, -69326.17, 45021.98, -181935.55, -104761.64, -168387.20, -41930.33, -187500.02, 0
27, -163290.08, -69287.70, 45017.71, -181934.19, -104760.01, -168384.48, -41954.91, -187500.02, 0
28, -163287.33, -69543.13, 45018.20, -181938.67, -104764.23, -168388.20, -41975.88, -187500.02, 0
29, -163283.00, -69606.82, 45019.83, -181944.11, -104769.24, -168392.69, -41996.49, -187500.02, 0
30, -163282.86, -69380.44, 45016.61, -181944.28, -104769.24, -168391.47, -42018.46, -187500.02, 0
31, -163286.47, -69287.05, 45012.97, -181942.52, -104767.25, -168388.27, -42041.08, -187500.02, 0
32, -163285.50, -69512.16, 45015.34, -181944.38, -104768.59, -168389.14, -42062.38, -187500.02, 0
33, -163280.38, -69642.78, 45017.39, -181948.00, -104771.77, -168391.89, -42082.23, -187500.02, 0
34, -163278.30, -69428.52, 45014.07, -181948.25, -104771.66, -168390.95, -42104.89, -187500.02, 0
35, -163279.00, -69261.44, 45008.50, -181947.13, -104770.42, -168388.47, -42130.02, -187500.02, 0
36, -163279.05, -69445.70, 45007.56, -181950.88, -104773.87, -168391.08, -42154.14, -187500.02, 0
37, -163276.20, -69624.07, 45008.36, -181955.22, -104777.80, -168394.59, -42176.04, -187500.02, 0
38, -163273.59, -69461.04, 45005.01, -181956.25, -104778.56, -168394.55, -42198.19, -187500.02, 0
39, -163276.63, -69272.77, 44999.18, -181954.41, -104776.50, -168391.28, -42222.46, -187500.02, 0
40, -163274.55, -69411.28, 44999.31, -181956.72, -104778.47, -168392.36, -42245.96, -187500.02, 0
41, -163272.61, -69628.23, 45002.31, -181962.17, -104783.50, -168397.02, -42268.15, -187500.02, 0
42, -163271.19, -69525.79, 44999.96, -181962.70, -104783.66, -168396.56, -42290.10, -187500.02, 0
43, -163273.03, -69289.82, 44995.98, -181961.39, -104782.23, -168393.83, -42314.73, -187500.02, 0
44, -163273.92, -69364.57, 44994.53, -181962.55, -104783.14, -168393.83, -42337.87, -187500.02, 0
45, -163270.34, -69615.47, 44998.31, -181966.08, -104786.12, -168396.42, -42358.72, -187500.02, 0
46, -163265.88, -69574.83, 44997.77, -181969.81, -104789.49, -168399.05, -42381.59, -187500.02, 0
47, -163267.44, -69308.29, 44993.68, -181967.80, -104787.41, -168395.80, -42405.88, -187500.02, 0
48, -163268.00, -69311.39, 44992.45, -181967.69, -104787.08, -168394.39, -42430.63, -187500.02, 0
49, -163265.16, -69574.92, 44994.86, -181971.72, -104790.65, -168397.50, -42452.18, -187500.02, 0
50, -163261.73, -69610.02, 44997.28, -181976.47, -104794.90, -168401.30, -42473.81, -187500.02, 0
51, -163263.55, -69373.98, 44993.30, -181977.30, -104795.50, -168400.81, -42501.06, -187500.02, 0
52, -163267.27, -69314.08, 44990.13, -181976.36, -104794.41, -168398.39, -42527.77, -187500.02, 0
53, -163262.55, -69533.75, 44991.96, -181979.11, -104796.75, -168400.25, -42550.21, -187500.02, 0
54, -163257.42, -69641.40, 44992.07, -181982.84, -104799.99, -168403.20, -42571.45, -187500.02, 0
55, -163258.20, -69432.12, 44988.94, -181984.88, -104801.78, -168404.03, -42597.11, -187500.02, 0
56, -163260.47, -69293.00, 44985.03, -181983.22, -104800.02, -168400.94, -42622.34, -187500.02, 0
57, -163257.16, -69486.95, 44986.01, -181985.27, -104801.65, -168402.03, -42644.82, -187500.02, 0
58, -163252.02, -69654.72, 44989.90, -181989.31, -104805.27, -168405.22, -42667.15, -187500.02, 0
59, -163252.94, -69469.82, 44988.41, -181989.27, -104804.82, -168403.83, -42692.46, -187500.02, 0
60, -163255.77, -69281.64, 44986.04, -181988.33, -104803.68, -168401.39, -42718.63, -187500.02, 0
61, -163253.83, -69435.24, 44987.82, -181992.09, -104807.20, -168404.00, -42742.70, -187500.02, 0
62, -163250.77, -69617.59, 44988.96, -181997.53, -104812.18, -168408.63, -42765.08, -187500.02, 0
63, -163249.17, -69466.49, 44985.66, -181996.14, -104810.48, -168406.16, -42788.32, -187500.02, 0
64, -163251.89, -69247.02, 44980.67, -181995.81, -104810.03, -168404.39, -42813.87, -187500.02, 0
65, -163249.61, -69360.23, 44981.23, -181998.38, -104812.20, -168405.80, -42836.87, -187500.02, 0
66, -163245.94, -69596.42, 44984.25, -182003.25, -104816.65, -168409.84, -42857.34, -187500.02, 0
67, -163243.88, -69533.05, 44982.35, -182003.44, -104816.53, -168408.92, -42879.23, -187500.02, 0
68, -163243.14, -69293.31, 44978.14, -182003.36, -104816.13, -168407.42, -42904.89, -187500.02, 0
69, -163242.83, -69328.47, 44976.29, -182006.92, -104819.42, -168409.81, -42929.36, -187500.02, 0
70, -163241.52, -69578.88, 44979.00, -182009.36, -104821.34, -168411.42, -42949.23, -187500.02, 0
71, -163239.56, -69568.73, 44978.30, -182009.48, -104821.05, -168410.42, -42969.13, -187500.02, 0
72, -163241.11, -69328.80, 44972.65, -182009.78, -104821.25, -168409.45, -42992.98, -187500.02, 0
73, -163243.19, -69306.52, 44970.55, -182011.45, -104822.80, -168409.86, -43018.81, -187500.02, 0
74, -163240.66, -69539.70, 44973.83, -182013.64, -104824.65, -168411.14, -43043.29, -187500.02, 0
75, -163237.98, -69594.77, 44976.54, -182018.55, -104829.16, -168415.16, -43066.94, -187500.02, 0
76, -163236.58, -69369.71, 44973.07, -182018.39, -104828.72, -168413.64, -43092.08, -187500.02, 0
77, -163236.17, -69278.34, 44970.57, -182017.78, -104827.87, -168411.66, -43119.04, -187500.02, 0
78, -163234.03, -69507.75, 44972.18, -182021.80, -104831.51, -168414.59, -43140.88, -187500.02, 0
79, -163230.97, -69626.76, 44973.99, -182025.89, -104835.09, -168417.73, -43161.30, -187500.02, 0
80, -163230.78, -69409.02, 44969.50, -182025.58, -104834.41, -168416.14, -43187.23, -187500.02, 0
81, -163231.86, -69259.70, 44964.02, -182023.70, -104832.47, -168412.94, -43215.13, -187500.02, 0
82, -163229.78, -69464.66, 44966.66, -182026.55, -104835.02, -168414.84, -43238.75, -187500.02, 0
83, -163228.19, -69631.31, 44970.90, -182032.56, -104840.67, -168419.92, -43261.66, -187500.02, 0
84, -163231.03, -69454.52, 44966.63, -182033.22, -104840.95, -168419.36, -43285.70, -187500.02, 0
85, -163231.23, -69257.64, 44962.21, -182032.73, -104840.27, -168417.45, -43310.97, -187500.02, 0
86, -163228.53, -69404.78, 44964.13, -182033.81, -104841.08, -168417.42, -43333.88, -187500.02, 0
87, -163224.70, -69620.81, 44969.43, -182037.73, -104844.56, -168420.48, -43354.38, -187500.02, 0
88, -163225.53, -69515.80, 44968.87, -182039.95, -104846.24, -168421.55, -43376.44, -187500.02, 0
89, -163224.75, -69275.61, 44963.84, -182037.94, -104844.14, -168418.17, -43401.03, -187500.02, 0
90, -163223.41, -69352.41, 44963.35, -182038.44, -104844.52, -168417.50, -43425.68, -187500.02, 0
91, -163219.94, -69601.19, 44966.75, -182042.09, -104847.76, -168420.23, -43447.81, -187500.02, 0
92, -163216.44, -69556.59, 44967.68, -182044.89, -104849.98, -168421.80, -43470.48, -187500.02, 0
93, -163218.92, -69300.13, 44963.86, -182044.38, -104849.10, -168419.88, -43496.14, -187500.02, 0
94, -163220.80, -69302.50, 44963.64, -182044.56, -104849.08, -168418.83, -43521.28, -187500.02, 0
95, -163215.50, -69552.57, 44967.98, -182047.08, -104851.16, -168420.41, -43543.03, -187500.02, 0
96, -163212.39, -69569.80, 44970.14, -182052.31, -104856.09, -168424.80, -43564.78, -187500.02, 0
97, -163214.47, -69317.70, 44965.36, -182050.44, -104854.02, -168421.59, -43590.80, -187500.02, 0
98, -163214.88, -69261.35, 44962.39, -182049.72, -104853.17, -168419.53, -43616.25, -187500.02, 0
99, -163211.00, -69522.91, 44964.46, -182053.70, -104856.66, -168422.59, -43639.84, -187500.02, 0
100, -163207.14, -69608.29, 44965.41, -182058.69, -104861.24, -168426.63, -43663.73, -187500.02, 0
101, -163208.83, -69371.59, 44961.11, -182058.73, -104861.08, -168425.28, -43688.65, -187500.02, 0
102, -163210.11, -69233.32, 44956.91, -182059.09, -104861.26, -168424.25, -43714.11, -187500.02, 0
103, -163205.59, -69452.23, 44957.80, -182061.02, -104862.69, -168425.22, -43738.59, -187500.02, 0
104, -163203.53, -69611.55, 44960.00, -182065.56, -104866.71, -168428.91, -43762.43, -187500.02, 0
105, -163204.94, -69422.28, 44957.38, -182067.38, -104868.30, -168429.44, -43785.79, -187500.02, 0
106, -163209.69, -69245.23, 44952.91, -182065.44, -104866.20, -168425.97, -43809.33, -187500.02, 0
107, -163208.23, -69414.95, 44953.69, -182065.44, -104865.82, -168424.92, -43831.70, -187500.02, 0
108, -163203.98, -69605.70, 44956.13, -182070.11, -104870.00, -168428.81, -43855.20, -187500.02, 0
109, -163204.66, -69465.82, 44953.89, -182071.25, -104870.94, -168428.72, -43879.16, -187500.02, 0
110, -163205.44, -69250.89, 44949.82, -182069.95, -104869.40, -168426.02, -43904.55, -187500.02, 0
111, -163206.08, -69357.70, 44950.23, -182072.77, -104871.86, -168427.78, -43927.99, -187500.02, 0
112, -163201.45, -69589.83, 44953.60, -182077.95, -104876.55, -168432.03, -43949.70, -187500.02, 0
113, -163199.58, -69525.75, 44952.89, -182077.02, -104875.43, -168430.00, -43972.88, -187500.02, 0
114, -163201.91, -69278.96, 44949.04, -182076.88, -104875.07, -168428.53, -43999.32, -187500.02, 0
115, -163199.92, -69327.87, 44948.02, -182078.67, -104876.62, -168428.92, -44025.34, -187500.02, 0
116, -163194.31, -69574.14, 44951.39, -182082.28, -104879.92, -168431.77, -44048.89, -187500.02, 0
117, -163189.50, -69548.08, 44951.50, -182086.16, -104883.37, -168434.61, -44071.63, -187500.02, 0
118, -163191.02, -69292.15, 44945.02, -182086.30, -104883.26, -168433.33, -44096.41, -187500.02, 0
119, -163193.34, -69280.26, 44940.50, -182087.63, -104884.38, -168433.42, -44123.28, -187500.02, 0
120, -163191.00, -69524.45, 44941.76, -182090.92, -104887.32, -168435.88, -44146.13, -187500.02, 0
121, -163189.05, -69583.91, 44944.02, -182091.75, -104887.77, -168435.75, -44168.52, -187500.02, 0
122, -163189.91, -69345.77, 44940.97, -182090.64, -104886.38, -168433.22, -44192.32, -187500.02, 0
123, -163191.78, -69258.11, 44940.10, -182089.63, -104885.20, -168430.78, -44218.28, -187500.02, 0
124, -163187.94, -69482.45, 44943.03, -182094.20, -104889.27, -168434.41, -44242.86, -187500.02, 0
125, -163184.83, -69596.63, 44943.52, -182097.64, -104892.27, -168436.97, -44265.19, -187500.02, 0
126, -163186.70, -69383.97, 44938.79, -182098.41, -104892.84, -168436.50, -44289.87, -187500.02, 0
127, -163187.44, -69240.54, 44933.31, -182098.36, -104892.58, -168435.00, -44316.18, -187500.02, 0
128, -163184.20, -69431.24, 44934.63, -182100.80, -104894.61, -168436.45, -44340.07, -187500.02, 0
129, -163183.73, -69611.84, 44937.49, -182104.22, -104897.59, -168438.84, -44361.26, -187500.02, 0
130, -163184.06, -69441.37, 44936.10, -182105.16, -104898.23, -168438.52, -44384.98, -187500.02, 0
131, -163183.39, -69242.51, 44931.59, -182105.48, -104898.30, -168437.31, -44412.13, -187500.02, 0
132, -163179.83, -69385.89, 44932.35, -182107.72, -104900.20, -168438.42, -44437.88, -187500.02, 0
133, -163176.20, -69602.01, 44936.23, -182112.94, -104904.94, -168442.88, -44460.12, -187500.02, 0
134, -163173.81, -69493.31, 44934.45, -182114.88, -104906.61, -168443.72, -44484.57, -187500.02, 0
135, -163177.09, -69254.91, 44928.73, -182114.19, -104905.88, -168441.59, -44510.19, -187500.02, 0
136, -163177.78, -69331.66, 44928.77, -182114.83, -104906.16, -168440.92, -44533.75, -187500.02, 0
137, -163174.88, -69569.49, 44931.74, -182118.30, -104909.27, -168443.55, -44554.34, -187500.02, 0
138, -163173.63, -69532.16, 44930.49, -182122.09, -104912.63, -168446.45, -44577.09, -187500.02, 0
139, -163175.34, -69301.73, 44925.51, -182120.47, -104910.66, -168443.39, -44602.77, -187500.02, 0
140, -163174.53, -69321.92, 44922.51, -182120.48, -104910.41, -168442.06, -44627.85, -187500.02, 0
141, -163172.94, -69565.82, 44924.66, -182127.50, -104916.98, -168448.08, -44651.05, -187500.02, 0
142, -163171.22, -69580.77, 44923.14, -182131.64, -104920.63, -168451.25, -44675.19, -187500.02, 0
143, -163171.13, -69329.74, 44915.25, -182127.86, -104916.67, -168446.11, -44699.04, -187500.02, 0
144, -163168.33, -69277.02, 44911.38, -182127.97, -104916.60, -168444.89, -44724.72, -187500.02, 0
145, -163163.33, -69526.82, 44914.78, -182132.20, -104920.56, -168448.19, -44746.49, -187500.02, 0
146, -163161.73, -69595.38, 44916.48, -182135.84, -104923.80, -168450.88, -44767.88, -187500.02, 0
147, -163163.91, -69365.02, 44913.66, -182135.19, -104922.91, -168448.95, -44794.50, -187500.02, 0
148, -163166.19, -69251.24, 44910.73, -182133.52, -104920.91, -168445.94, -44821.06, -187500.02, 0
149, -163163.48, -69465.27, 44913.55, -182136.52, -104923.51, -168447.91, -44844.66, -187500.02, 0
150, -163158.55, -69609.27, 44916.34, -182142.27, -104928.83, -168452.80, -44866.86, -187500.02, 0
151, -163158.36, -69412.94, 44912.95, -182143.70, -104930.06, -168453.02, -44890.97, -187500.02, 0
152, -163162.19, -69247.71, 44909.08, -182143.16, -104929.26, -168450.98, -44918.55, -187500.02, 0
153, -163162.63, -69414.41, 44909.86, -182145.00, -104930.84, -168451.84, -44942.98, -187500.02, 0
154, -163160.94, -69609.56, 44912.01, -182148.73, -104934.04, -168454.67, -44964.24, -187500.02, 0
155, -163159.44, -69464.23, 44908.86, -182148.14, -104933.19, -168452.83, -44988.20, -187500.02, 0
156, -163159.84, -69252.63, 44902.26, -182148.03, -104932.92, -168451.25, -45015.94, -187500.02, 0
157, -163157.72, -69355.72, 44902.08, -182149.25, -104933.81, -168451.33, -45041.71, -187500.02, 0
158, -163151.88, -69576.04, 44904.12, -182154.50, -104938.60, -168455.80, -45065.14, -187500.02, 0
159, -163148.53, -69496.94, 44899.87, -182158.63, -104942.30, -168458.86, -45088.86, -187500.02, 0
160, -163152.00, -69278.83, 44894.48, -182158.16, -104941.64, -168456.86, -45114.16, -187500.02, 0
161, -163155.08, -69330.66, 44893.99, -182158.00, -104941.34, -168455.48, -45137.29, -187500.02, 0
162, -163148.81, -69578.97, 44899.54, -182160.70, -104943.59, -168457.38, -45158.82, -187500.02, 0
163, -163146.41, -69553.58, 44900.85, -182165.34, -104947.83, -168461.03, -45183.74, -187500.02, 0
164, -163149.22, -69286.63, 44896.20, -182166.31, -104948.55, -168460.48, -45210.69, -187500.02, 0
165, -163149.59, -69269.13, 44892.89, -182164.78, -104946.71, -168457.66, -45236.98, -187500.02, 0
166, -163145.95, -69526.59, 44896.45, -182167.42, -104948.90, -168459.28, -45260.56, -187500.02, 0
167, -163143.45, -69573.42, 44898.11, -182169.70, -104950.84, -168460.67, -45284.01, -187500.02, 0
168, -163146.25, -69320.34, 44894.17, -182170.02, -104950.94, -168459.61, -45309.13, -187500.02, 0
169, -163145.31, -69234.91, 44891.55, -182170.31, -104951.00, -168458.63, -45335.24, -187500.02, 0
170, -163143.13, -69470.78, 44894.28, -182174.16, -104954.49, -168461.56, -45361.43, -187500.02, 0
171, -163138.94, -69592.27, 44894.26, -182176.86, -104956.81, -168463.23, -45384.75, -187500.02, 0
172, -163138.36, -69366.60, 44889.66, -182176.67, -104956.32, -168461.69, -45410.07, -187500.02, 0
173, -163141.00, -69209.47, 44884.60, -182177.27, -104956.66, -168460.91, -45436.22, -187500.02, 0
174, -163140.77, -69409.63, 44884.36, -182178.45, -104957.41, -168460.94, -45462.82, -187500.02, 0
175, -163137.83, -69583.30, 44885.99, -182182.45, -104960.86, -168464.00, -45485.73, -187500.02, 0
176, -163135.92, -69409.18, 44883.89, -182183.61, -104961.91, -168464.06, -45510.41, -187500.02, 0
177, -163138.16, -69195.21, 44877.90, -182185.17, -104963.30, -168464.11, -45537.18, -187500.02, 0
178, -163139.92, -69360.19, 44879.24, -182185.17, -104962.94, -168462.98, -45562.80, -187500.02, 0
179, -163134.16, -69579.13, 44883.20, -182187.72, -104965.06, -168464.73, -45588.08, -187500.02, 0
180, -163132.28, -69458.16, 44881.39, -182192.22, -104969.31, -168468.20, -45615.13, -187500.02, 0
181, -163134.97, -69235.04, 44875.30, -182192.28, -104969.09, -168466.80, -45642.57, -187500.02, 0
182, -163133.73, -69326.99, 44874.41, -182191.86, -104968.51, -168465.19, -45667.34, -187500.02, 0
183, -163130.88, -69574.81, 44878.25, -182194.00, -104970.18, -168466.41, -45691.23, -187500.02, 0
184, -163131.52, -69513.72, 44877.41, -182197.52, -104973.29, -168468.92, -45716.18, -187500.02, 0
185, -163129.42, -69264.50, 44872.42, -182195.55, -104971.03, -168465.47, -45743.13, -187500.02, 0
186, -163129.03, -69282.05, 44870.54, -182195.59, -104970.80, -168464.16, -45771.01, -187500.02, 0
187, -163125.66, -69518.52, 44873.94, -182202.88, -104977.63, -168470.55, -45795.04, -187500.02, 0
188, -163123.16, -69534.58, 44873.76, -182206.63, -104981.02, -168473.45, -45818.66, -187500.02, 0
189, -163123.16, -69293.80, 44868.62, -182205.27, -104979.59, -168470.72, -45844.99, -187500.02, 0
190, -163124.77, -69246.13, 44864.82, -182206.25, -104980.40, -168470.28, -45870.61, -187500.02, 0
